LabVIEW Measurement	
Writer_Version	2
Reader_Version	2
Separator	Tab
Decimal_Separator	.
Multi_Headings	Yes
X_Columns	One
Time_Pref	Relative
Operator	e014
Description	Hysteresis Loop Data
Date	2015/08/26
Time	15:50:58.6974701881408691406
***End_of_Header***	
	
Channels	2		
Samples	1000	1000	
Date	2015/08/26	2015/08/26	
Time	15:50:58.6974701881408691406	15:50:58.6974701881408691406	
Y_Unit_Label	V	V	
X_Dimension	Time	Time	
X0	0.0000000000000000E+0	0.0000000000000000E+0	
Delta_X	1.000000E-5	1.000000E-5	
***End_of_Header***			
X_Value	Applied Voltage	Sense Voltage	Comment
0.000000	1.153947	-4.428431
1.000000E-5	1.347431	-4.334067
2.000000E-5	1.615332	-4.269624
3.000000E-5	1.878981	-4.219647
4.000000E-5	2.029941	-4.176575
5.000000E-5	2.068213	-4.142710
6.000000E-5	2.046951	-4.110817
7.000000E-5	2.027815	-4.071690
8.000000E-5	2.087349	-4.024015
9.000000E-5	2.244688	-3.960887
1.000000E-4	2.448803	-3.894471
0.000110	2.640161	-3.843837
0.000120	2.784743	-3.800436
0.000130	2.846403	-3.758350
0.000140	2.854907	-3.719224
0.000150	2.848529	-3.674508
0.000160	2.893179	-3.619271
0.000170	3.029256	-3.571925
0.000180	3.171711	-3.503864
0.000190	3.324798	-3.443038
0.000200	3.471506	-3.383197
0.000210	3.599078	-3.324343
0.000220	3.699009	-3.267133
0.000230	3.786183	-3.208937
0.000240	3.879736	-3.147452
0.000250	3.990298	-3.083666
0.000260	4.113618	-3.018236
0.000270	4.247569	-2.951491
0.000280	4.368762	-2.885404
0.000290	4.479325	-2.819645
0.000300	4.577130	-2.753229
0.000310	4.666430	-2.687799
0.000320	4.747226	-2.620725
0.000330	4.825895	-2.552994
0.000340	4.906691	-2.483289
0.000350	4.991739	-2.412599
0.000360	5.083165	-2.339607
0.000370	5.176718	-2.265299
0.000380	5.278776	-2.189019
0.000390	5.387212	-2.110766
0.000400	5.504153	-2.030212
0.000410	5.618968	-1.947685
0.000420	5.746540	-1.863842
0.000430	5.874112	-1.777698
0.000440	5.997431	-1.689911
0.000450	6.120751	-1.602451
0.000460	6.239818	-1.513677
0.000470	6.354633	-1.423588
0.000480	6.456691	-1.333169
0.000490	6.560874	-1.241765
0.000500	6.652301	-1.150360
0.000510	6.733097	-1.057969
0.000520	6.818145	-0.963934
0.000530	6.903193	-0.868255
0.000540	6.988241	-0.771590
0.000550	7.077541	-0.673609
0.000560	7.168968	-0.573656
0.000570	7.266773	-0.472058
0.000580	7.373083	-0.367831
0.000590	7.490024	-0.261630
0.000600	7.606965	-0.154772
0.000610	7.721779	-0.046270
0.000620	7.851478	0.063547
0.000630	7.974797	0.175008
0.000640	8.102369	0.286798
0.000650	8.219310	0.398259
0.000660	8.336251	0.509392
0.000670	8.444687	0.619867
0.000680	8.546745	0.730670
0.000690	8.644550	0.840816
0.000700	8.740229	0.949319
0.000710	8.823151	1.057492
0.000720	8.910325	1.164679
0.000730	8.993247	1.272523
0.000740	9.076168	1.379710
0.000750	9.165469	1.485253
0.000760	9.256895	1.590468
0.000770	9.352574	1.695353
0.000780	9.454632	1.800239
0.000790	9.565194	1.904795
0.000800	9.686388	2.009023
0.000810	9.805455	2.113251
0.000820	9.922396	2.215177
0.000830	10.052094	2.317104
0.000840	10.181792	2.417386
0.000850	10.305112	2.515696
0.000860	10.428431	2.612362
0.000870	10.543246	2.705739
0.000880	10.653808	2.797802
0.000890	10.755866	2.886248
0.000900	10.855797	2.974365
0.000910	10.947224	3.058865
0.000920	11.028019	3.141721
0.000930	11.117320	3.222276
0.000940	11.198115	3.301845
0.000950	11.276785	3.379769
0.000960	11.361833	3.456707
0.000970	11.446880	3.531344
0.000980	11.536181	3.605980
0.000990	11.631860	3.678315
0.001000	11.733917	3.752294
0.001010	11.844480	3.823643
0.001020	11.961421	3.894991
0.001030	12.082614	3.966669
0.001040	12.214438	4.036702
0.001050	12.346263	4.108708
0.001060	12.473834	4.177427
0.001070	12.605659	4.243843
0.001080	12.731105	4.307958
0.001090	12.856550	4.371416
0.001100	12.971365	4.430928
0.001110	13.075549	4.489782
0.001120	13.173354	4.548637
0.001130	13.260528	4.605847
0.001140	13.343450	4.659441
0.001150	13.428498	4.712377
0.001160	13.505041	4.763012
0.001170	13.587963	4.815290
0.001180	13.662379	4.866911
0.001190	13.741049	4.916888
0.001200	13.815466	4.969167
0.001210	13.917523	5.020130
0.001220	14.025959	5.069121
0.001230	14.138648	5.117782
0.001240	14.251336	5.168088
0.001250	14.372530	5.217736
0.001260	14.500102	5.267056
0.001270	14.631926	5.317362
0.001280	14.761624	5.367010
0.001290	14.891322	5.414356
0.001300	15.031651	5.460717
0.001310	15.146466	5.505433
0.001320	15.257028	5.549492
0.001330	15.367591	5.591906
0.001340	15.465396	5.633006
0.001350	15.556822	5.672790
0.001360	15.641870	5.712903
0.001370	15.722666	5.752359
0.001380	15.799209	5.787869
0.001390	15.897014	5.819762
0.001400	15.975683	5.858889
0.001410	16.054353	5.896372
0.001420	16.130896	5.932210
0.001430	16.213817	5.968378
0.001440	16.307370	6.005203
0.001450	16.407301	6.041700
0.001460	16.524242	6.078854
0.001470	16.647562	6.115679
0.001480	16.779386	6.153819
0.001490	16.913337	6.191302
0.001500	17.049413	6.229114
0.001510	17.185490	6.265281
0.001520	17.323693	6.301120
0.001530	17.449138	6.335972
0.001540	17.561827	6.368852
0.001550	17.666011	6.400088
0.001560	17.761689	6.431652
0.001570	17.842485	6.461902
0.001580	17.927533	6.492151
0.001590	18.001950	6.518455
0.001600	18.076367	6.543443
0.001610	18.155036	6.563171
0.001620	18.240084	6.576323
0.001630	18.329384	6.610189
0.001640	18.414432	6.657536
0.001650	18.495228	6.688442
0.001660	18.597285	6.714417
0.001670	18.718478	6.743680
0.001680	18.846050	6.772614
0.001690	18.977875	6.803193
0.001700	19.111825	6.833771
0.001710	19.247902	6.863362
0.001720	19.381852	6.892954
0.001730	19.507298	6.920244
0.001740	19.613608	6.946877
0.001750	19.722044	6.971537
0.001760	19.819849	6.996854
0.001770	19.911275	7.021185
0.001780	20.000576	7.049133
0.001790	20.081371	7.073135
0.001800	20.168545	7.093520
0.001810	20.249341	7.114563
0.001820	20.332262	7.134949
0.001830	20.425815	7.155663
0.001840	20.525746	7.178021
0.001850	20.640561	7.188214
0.001860	20.746871	7.228327
0.001870	20.863812	7.253316
0.001880	20.980753	7.277647
0.001890	21.099820	7.302306
0.001900	21.221013	7.327624
0.001910	21.359216	7.354585
0.001920	21.505923	7.380889
0.001930	21.650505	7.406206
0.001940	21.784455	7.429551
0.001950	21.905649	7.451251
0.001960	22.011958	7.471966
0.001970	22.105511	7.491036
0.001980	22.188433	7.509777
0.001990	22.264976	7.526875
0.002000	22.326636	7.541342
0.002010	22.379791	7.555480
0.002020	22.426567	7.568303
0.002030	22.481848	7.548904
0.002040	22.530751	7.564358
0.002050	22.583905	7.610061
0.002060	22.630682	7.637680
0.002070	22.728487	7.656421
0.002080	22.896456	7.685026
0.002090	23.126086	7.718892
0.002100	23.385482	7.755389
0.002110	23.649130	7.787282
0.002120	23.876633	7.814244
0.002130	24.023341	7.843835
0.002140	24.061612	7.857974
0.002150	24.019089	7.855672
0.002160	23.919157	7.845151
0.002170	23.819226	7.833972
0.002180	23.768197	7.825094
0.002190	23.808595	7.798790
0.002200	23.917031	7.883620
0.002210	24.036098	7.908280
0.002220	24.269980	7.937872
0.002230	24.518745	7.968450
0.002240	24.763258	7.998699
0.002250	24.995013	8.027305
0.002260	25.207633	8.052622
0.002270	25.401117	8.072679
0.002280	25.560581	8.093064
0.002290	25.686027	8.115422
0.002300	25.754065	8.131533
0.002310	25.790211	8.141726
0.002320	25.805094	8.146329
0.002330	25.807220	8.148960
0.002340	25.800842	8.148631
0.002350	25.785958	8.140740
0.002360	25.558455	8.109504
0.002370	25.354340	8.126930
0.002380	25.226768	8.153563
0.002390	25.430883	8.199923
0.002400	25.751939	8.234447
0.002410	25.900773	8.250558
0.002420	25.715794	8.239050
0.002430	25.318195	8.196306
0.002440	24.899334	8.154549
0.002450	24.595288	8.128903
0.002460	24.437949	8.075309
0.002470	24.382668	8.150604
0.002480	24.301873	8.156851
0.002490	24.289116	8.163098
0.002500	24.269980	8.165399
0.002510	24.218951	8.166386
0.002520	24.138156	8.162769
0.002530	24.014836	8.157508
0.002540	23.874507	8.150604
0.002550	23.749062	8.147644
0.002560	23.681023	8.153563
0.002570	23.727800	8.172304
0.002580	23.855371	8.187100
0.002590	23.931914	8.197950
0.002600	23.838362	8.195649
0.002610	23.572587	8.169674
0.002620	23.219638	8.130218
0.002630	22.881573	8.094379
0.002640	22.622177	8.066431
0.002650	22.483974	8.037826
0.002660	22.396800	8.090434
0.002670	22.377664	8.100626
0.002680	22.475469	8.121012
0.002690	22.632808	8.140082
0.002700	22.760380	8.161783
0.002710	22.643439	8.144685
0.002720	22.135278	8.064787
0.002730	21.522933	7.988178
0.002740	21.269916	8.014153
0.002750	21.276294	8.047690
0.002760	21.603729	8.094379
0.002770	21.903522	8.117724
0.002780	22.009832	8.123642
0.002790	21.852494	8.114765
0.002800	21.539943	8.082542
0.002810	21.180615	8.040456
0.002820	20.838297	8.001987
0.002830	20.581028	7.919459
0.002840	20.455582	8.000014
0.002850	20.455582	8.024345
0.002860	20.753250	8.069391
0.002870	21.078558	8.093722
0.002880	21.074305	8.092735
0.002890	20.649066	8.034209
0.002900	20.087750	7.965162
0.002910	19.628491	7.909595
0.002920	19.413745	7.910253
0.002930	19.362716	7.948393
0.002940	19.524307	7.978314
0.002950	19.739053	8.005604
0.002960	19.894266	8.016125
0.002970	19.921906	8.018756
0.002980	19.834732	8.018427
0.002990	19.643374	8.004617
0.003000	19.405240	7.981602
0.003010	19.150097	7.955298
0.003020	18.903458	7.927679
0.003030	18.667450	7.902033
0.003040	18.461209	7.876386
0.003050	18.314501	7.820491
0.003060	18.223074	7.888552
0.003070	18.140153	7.891840
0.003080	18.206065	7.911239
0.003090	18.369782	7.937214
0.003100	18.561140	7.953983
0.003110	18.635557	7.968779
0.003120	18.380413	7.932611
0.003130	17.893514	7.864879
0.003140	17.400236	7.804709
0.003150	17.043035	7.720865
0.003160	16.919715	7.781693
0.003170	16.853803	7.801092
0.003180	16.992006	7.828053
0.003190	17.202499	7.857316
0.003200	17.389605	7.877373
0.003210	17.489536	7.879017
0.003220	17.483158	7.883291
0.003230	17.342829	7.877044
0.003240	17.117452	7.856987
0.003250	16.845298	7.828711
0.003260	16.566766	7.797804
0.003270	16.298865	7.766568
0.003280	16.052226	7.738620
0.003290	15.837480	7.713961
0.003300	15.650375	7.693904
0.003310	15.503667	7.662668
0.003320	15.382474	7.606773
0.003330	15.295300	7.648201
0.003340	15.180485	7.677135
0.003350	15.078428	7.675162
0.003360	15.038030	7.675491
0.003370	15.052913	7.681738
0.003380	15.093311	7.690616
0.003390	15.150718	7.701795
0.003400	15.212378	7.711330
0.003410	15.252776	7.715933
0.003420	15.276164	7.713961
0.003430	15.261281	7.712974
0.003440	15.191116	7.712645
0.003450	15.065670	7.706069
0.003460	14.895575	7.692589
0.003470	14.687207	7.671546
0.003480	14.455451	7.644584
0.003490	14.193929	7.612691
0.003500	13.928154	7.578825
0.003510	13.658127	7.545616
0.003520	13.415740	7.513065
0.003530	13.198868	7.485446
0.003540	13.013889	7.454211
0.003550	12.869307	7.378916
0.003560	12.784259	7.414097
0.003570	12.688581	7.451909
0.003580	12.601406	7.452567
0.003590	12.580144	7.451580
0.003600	12.599280	7.455855
0.003610	12.637552	7.463746
0.003620	12.688581	7.472295
0.003630	12.739609	7.479857
0.003640	12.773628	7.484789
0.003650	12.803395	7.485118
0.003660	12.805521	7.480186
0.003670	12.786386	7.474267
0.003680	12.735357	7.470651
0.003690	12.643930	7.466376
0.003700	12.509980	7.457827
0.003710	12.339884	7.443032
0.003720	12.144274	7.422975
0.003730	11.929528	7.396014
0.003740	11.691393	7.362805
0.003750	11.440502	7.327953
0.003760	11.189610	7.293429
0.003770	10.936593	7.259234
0.003780	10.706963	7.226683
0.003790	10.496470	7.196105
0.003800	10.311490	7.168157
0.003810	10.162656	7.113248
0.003820	10.049968	7.074450
0.003830	9.986182	7.128373
0.003840	9.881998	7.142840
0.003850	9.824591	7.138237
0.003860	9.820338	7.136264
0.003870	9.845853	7.139881
0.003880	9.886250	7.144484
0.003890	9.935153	7.149416
0.003900	9.977677	7.153361
0.003910	10.009570	7.154676
0.003920	10.015949	7.149087
0.003930	10.001065	7.140209
0.003940	9.954289	7.132318
0.003950	9.871367	7.125414
0.003960	9.748047	7.115221
0.003970	9.594961	7.098781
0.003980	9.418487	7.077080
0.003990	9.218624	7.051434
0.004000	9.006004	7.021843
0.004010	8.789132	6.990936
0.004020	8.580764	6.960686
0.004030	8.378775	6.931095
0.004040	8.202301	6.904133
0.004050	8.040709	6.881117
0.004060	7.913137	6.862705
0.004070	7.808954	6.851197
0.004080	7.753672	6.847251
0.004090	7.740915	6.849882
0.004100	7.777061	6.857444
0.004110	7.830216	6.861390
0.004120	7.864235	6.859417
0.004130	7.855730	6.850539
0.004140	7.791944	6.834428
0.004150	7.696265	6.816344
0.004160	7.585703	6.796945
0.004170	7.460257	6.775574
0.004180	7.326306	6.754531
0.004190	7.185977	6.732501
0.004200	7.043522	6.709157
0.004210	6.905319	6.686799
0.004220	6.779873	6.664440
0.004230	6.656553	6.644713
0.004240	6.565127	6.625642
0.004250	6.494962	6.604271
0.004260	6.409914	6.574679
0.004270	6.278090	6.551334
0.004280	6.114372	6.526675
0.004290	5.948529	6.498069
0.004300	5.791190	6.469464
0.004310	5.640230	6.443160
0.004320	5.502027	6.418172
0.004330	5.372329	6.394498
0.004340	5.240504	6.369839
0.004350	5.093796	6.342877
0.004360	4.919448	6.311970
0.004370	4.706828	6.279748
0.004380	4.483577	6.230100
0.004390	4.324112	6.191960
0.004400	4.154016	6.184068
0.004410	4.049832	6.169273
0.004420	3.990298	6.157436
0.004430	3.956279	6.145270
0.004440	3.913755	6.132776
0.004450	3.879736	6.121268
0.004460	3.860600	6.113048
0.004470	3.871231	6.108116
0.004480	3.915881	6.102198
0.004490	3.952027	6.082470
0.004500	3.911629	6.049920
0.004510	3.781931	6.021643
0.004520	3.601204	5.983503
0.004530	3.394962	5.943061
0.004540	3.173837	5.903276
0.004550	2.961217	5.863492
0.004560	2.731588	5.824694
0.004570	2.504084	5.769127
0.004580	2.361629	5.750057
0.004590	2.278707	5.751701
0.004600	2.299969	5.754003
0.004610	2.353124	5.750057
0.004620	2.393522	5.738221
0.004630	2.406279	5.719479
0.004640	2.382891	5.691203
0.004650	2.312726	5.646815
0.004660	2.121368	5.596838
0.004670	1.796059	5.537326
0.004680	1.438858	5.483732
0.004690	1.187966	5.411068
0.004700	1.049763	5.331171
0.004710	0.915812	5.366352
0.004720	0.909433	5.372270
0.004730	1.030627	5.387724
0.004740	1.196471	5.385422
0.004750	1.264509	5.351228
0.004760	1.177335	5.309142
0.004770	0.962589	5.257192
0.004780	0.667047	5.197680
0.004790	0.337485	5.130934
0.004800	0.133370	5.102987
0.004810	0.082341	5.104959
0.004820	0.165263	5.103644
0.004830	0.254563	5.085232
0.004840	0.258816	5.041830
0.004850	0.084467	4.983634
0.004860	-0.168551	4.917874
0.004870	-0.508743	4.833374
0.004880	-0.704353	4.797535
0.004890	-0.810663	4.792932
0.004900	-0.729868	4.801810
0.004910	-0.583160	4.784055
0.004920	-0.606548	4.731118
0.004930	-0.821294	4.674237
0.004940	-1.108332	4.615382
0.004950	-1.297564	4.569351
0.004960	-1.337961	4.566063
0.004970	-1.255040	4.547650
0.004980	-1.272049	4.499975
0.004990	-1.442145	4.438490
0.005000	-1.678154	4.372402
0.005010	-1.861007	4.337221
0.005020	-1.918415	4.310918
0.005030	-1.946055	4.272120
0.005040	-2.031103	4.217868
0.005050	-2.179937	4.158356
0.005060	-2.347907	4.105092
0.005070	-2.477606	4.060375
0.005080	-2.560528	4.018618
0.005090	-2.628566	3.972258
0.005100	-2.709362	3.921295
0.005110	-2.817798	3.867701
0.005120	-2.926234	3.816080
0.005130	-3.030418	3.768734
0.005140	-3.117593	3.721059
0.005150	-3.200514	3.671410
0.005160	-3.294067	3.619461
0.005170	-3.402504	3.563237
0.005180	-3.510940	3.507013
0.005190	-3.625755	3.449474
0.005200	-3.734191	3.390948
0.005210	-3.849006	3.330450
0.005220	-3.957443	3.268308
0.005230	-4.074384	3.204521
0.005240	-4.193451	3.140406
0.005250	-4.306140	3.075305
0.005260	-4.418828	3.009875
0.005270	-4.525139	2.943129
0.005280	-4.631449	2.876055
0.005290	-4.733506	2.808652
0.005300	-4.827059	2.740920
0.005310	-4.920612	2.672531
0.005320	-5.014165	2.603813
0.005330	-5.107718	2.534108
0.005340	-5.203397	2.464404
0.005350	-5.296950	2.392398
0.005360	-5.392629	2.319077
0.005370	-5.494687	2.244440
0.005380	-5.596745	2.166516
0.005390	-5.705181	2.087605
0.005400	-5.817870	2.006393
0.005410	-5.928432	1.922221
0.005420	-6.049626	1.837392
0.005430	-6.160189	1.751248
0.005440	-6.279256	1.662145
0.005450	-6.394071	1.571069
0.005460	-6.502507	1.480979
0.005470	-6.608818	1.387601
0.005480	-6.736390	1.292909
0.005490	-6.834195	1.197887
0.005500	-6.932000	1.101879
0.005510	-7.025553	1.005542
0.005520	-7.119106	0.908219
0.005530	-7.208407	0.809581
0.005540	-7.304086	0.709628
0.005550	-7.401891	0.610003
0.005560	-7.491192	0.508405
0.005570	-7.595376	0.405493
0.005580	-7.701686	0.301265
0.005590	-7.805870	0.194407
0.005600	-7.918559	0.086563
0.005610	-8.031248	-0.023255
0.005620	-8.143936	-0.134716
0.005630	-8.258751	-0.245848
0.005640	-8.371440	-0.358953
0.005650	-8.488381	-0.472058
0.005660	-8.601070	-0.586479
0.005670	-8.709507	-0.699255
0.005680	-8.815817	-0.812689
0.005690	-8.911496	-0.925136
0.005700	-9.022059	-1.035940
0.005710	-9.117738	-1.146743
0.005720	-9.211291	-1.256232
0.005730	-9.302718	-1.364076
0.005740	-9.394144	-1.472249
0.005750	-9.489824	-1.577134
0.005760	-9.583377	-1.682019
0.005770	-9.681182	-1.785918
0.005780	-9.785366	-1.888502
0.005790	-9.887424	-1.991085
0.005800	-10.002239	-2.093669
0.005810	-10.114928	-2.195924
0.005820	-10.229743	-2.296535
0.005830	-10.346684	-2.395830
0.005840	-10.461499	-2.494468
0.005850	-10.578440	-2.591462
0.005860	-10.695381	-2.687141
0.005870	-10.803818	-2.780848
0.005880	-10.912254	-2.872581
0.005890	-11.022817	-2.961684
0.005900	-11.122749	-3.048814
0.005910	-11.224806	-3.133314
0.005920	-11.316233	-3.216170
0.005930	-11.405534	-3.296067
0.005940	-11.496961	-3.374320
0.005950	-11.590514	-3.451586
0.005960	-11.681940	-3.525893
0.005970	-11.775494	-3.599214
0.005980	-11.873299	-3.670563
0.005990	-11.971104	-3.740267
0.006000	-12.068910	-3.810628
0.006010	-12.183725	-3.880004
0.006020	-12.292161	-3.949708
0.006030	-12.409103	-4.019083
0.006040	-12.521792	-4.087144
0.006050	-12.638733	-4.155204
0.006060	-12.764179	-4.221620
0.006070	-12.885373	-4.287708
0.006080	-13.000188	-4.351822
0.006090	-13.106498	-4.414622
0.006100	-13.210682	-4.477750
0.006110	-13.327623	-4.537262
0.006120	-13.427555	-4.595458
0.006130	-13.523234	-4.651682
0.006140	-13.614661	-4.706919
0.006150	-13.703962	-4.759855
0.006160	-13.795389	-4.812462
0.006170	-13.882563	-4.862438
0.006180	-13.971864	-4.911757
0.006190	-14.067543	-4.959104
0.006200	-14.158970	-5.006450
0.006210	-14.256775	-5.055111
0.006220	-14.365212	-5.103115
0.006230	-14.473648	-5.152105
0.006240	-14.586337	-5.200438
0.006250	-14.703278	-5.249428
0.006260	-14.824472	-5.299076
0.006270	-14.945666	-5.347408
0.006280	-15.071112	-5.395412
0.006290	-15.188053	-5.443087
0.006300	-15.298616	-5.489118
0.006310	-15.411305	-5.534492
0.006320	-15.526120	-5.578550
0.006330	-15.619673	-5.621951
0.006340	-15.719605	-5.663050
0.006350	-15.808906	-5.702834
0.006360	-15.898206	-5.741631
0.006370	-15.985381	-5.778785
0.006380	-16.074681	-5.814295
0.006390	-16.166108	-5.848818
0.006400	-16.257535	-5.882684
0.006410	-16.351088	-5.917207
0.006420	-16.453146	-5.952388
0.006430	-16.559457	-5.988555
0.006440	-16.667893	-6.024722
0.006450	-16.782708	-6.062205
0.006460	-16.897523	-6.099359
0.006470	-17.018717	-6.137827
0.006480	-17.144163	-6.175639
0.006490	-17.265357	-6.212463
0.006500	-17.386551	-6.249617
0.006510	-17.499240	-6.285784
0.006520	-17.609803	-6.320965
0.006530	-17.720366	-6.355817
0.006540	-17.818171	-6.388039
0.006550	-17.913850	-6.419603
0.006560	-18.007404	-6.451496
0.006570	-18.096704	-6.481088
0.006580	-18.183879	-6.509364
0.006590	-18.273179	-6.535010
0.006600	-18.366733	-6.558354
0.006610	-18.456033	-6.583671
0.006620	-18.545334	-6.608988
0.006630	-18.645266	-6.634963
0.006640	-18.747324	-6.663568
0.006650	-18.853634	-6.691844
0.006660	-18.966323	-6.721107
0.006670	-19.081138	-6.750698
0.006680	-19.202332	-6.781276
0.006690	-19.327778	-6.812182
0.006700	-19.451098	-6.841445
0.006710	-19.568040	-6.871036
0.006720	-19.680729	-6.900299
0.006730	-19.810428	-6.929890
0.006740	-19.918864	-6.957180
0.006750	-20.023048	-6.984470
0.006760	-20.116602	-7.010773
0.006770	-20.205902	-7.037735
0.006780	-20.293077	-7.063380
0.006790	-20.384504	-7.088369
0.006800	-20.473804	-7.103493
0.006810	-20.560979	-7.116316
0.006820	-20.652406	-7.132427
0.006830	-20.745959	-7.150511
0.006840	-20.841639	-7.172540
0.006850	-20.941570	-7.196542
0.006860	-21.050007	-7.220544
0.006870	-21.158444	-7.244545
0.006880	-21.277511	-7.270191
0.006890	-21.398705	-7.293864
0.006900	-21.515647	-7.319839
0.006910	-21.643219	-7.343841
0.006920	-21.762287	-7.368501
0.006930	-21.877102	-7.393489
0.006940	-21.994044	-7.417820
0.006950	-22.102480	-7.440835
0.006960	-22.204538	-7.462864
0.006970	-22.302344	-7.485551
0.006980	-22.389518	-7.510210
0.006990	-22.478819	-7.536185
0.007000	-22.565994	-7.538816
0.007010	-22.668052	-7.546378
0.007020	-22.759479	-7.562489
0.007030	-22.850906	-7.578928
0.007040	-22.948711	-7.594382
0.007050	-23.038012	-7.611808
0.007060	-23.129439	-7.630220
0.007070	-23.235750	-7.648632
0.007080	-23.348439	-7.670004
0.007090	-23.467506	-7.692033
0.007100	-23.595079	-7.715378
0.007110	-23.726904	-7.738064
0.007120	-23.856603	-7.759765
0.007130	-23.979923	-7.780479
0.007140	-24.101117	-7.801193
0.007150	-24.213806	-7.820591
0.007160	-24.315864	-7.840319
0.007170	-24.415796	-7.858074
0.007180	-24.502971	-7.877144
0.007190	-24.583767	-7.901803
0.007200	-24.666689	-7.898187
0.007210	-24.777252	-7.910352
0.007220	-24.870805	-7.925805
0.007230	-24.949475	-7.940601
0.007240	-25.030271	-7.955068
0.007250	-25.119571	-7.969206
0.007260	-25.215251	-7.982686
0.007270	-25.323688	-7.995838
0.007280	-25.436377	-8.012278
0.007290	-25.553318	-8.030362
0.007300	-25.674512	-8.047788
0.007310	-25.795706	-8.065871
0.007320	-25.919027	-8.083955
0.007330	-26.050852	-8.103025
0.007340	-26.172046	-8.122424
0.007350	-26.299618	-8.133931
0.007360	-26.167793	-8.124725
0.007370	-25.965803	-8.116505
0.007380	-25.804211	-8.115190
0.007390	-25.742551	-8.129657
0.007400	-25.823347	-8.164180
0.007410	-25.976434	-8.206266
0.007420	-26.031716	-8.254927
0.007430	-25.921153	-8.191141
0.007440	-25.617105	-8.162536
0.007450	-25.228008	-8.136891
0.007460	-24.896319	-8.121108
0.007470	-24.675194	-8.114204
0.007480	-24.543369	-8.106313
0.007490	-24.466825	-8.100395
0.007500	-24.411544	-8.100066
0.007510	-24.360515	-8.101052
0.007520	-24.294602	-8.101052
0.007530	-24.226563	-8.101710
0.007540	-24.173408	-8.104340
0.007550	-24.145767	-8.112889
0.007560	-24.156398	-8.127684
0.007570	-24.179787	-8.144124
0.007580	-24.192544	-8.161550
0.007590	-24.152146	-8.209554
0.007600	-24.024573	-8.158262
0.007610	-23.928894	-8.132945
0.007620	-23.748166	-8.119136
0.007630	-23.533419	-8.104340
0.007640	-23.303788	-8.089216
0.007650	-23.089041	-8.077050
0.007660	-22.895556	-8.066200
0.007670	-22.712702	-8.056665
0.007680	-22.544732	-8.049103
0.007690	-22.378887	-8.039239
0.007700	-22.225800	-8.026745
0.007710	-22.113111	-8.014908
0.007720	-22.047199	-8.010963
0.007730	-22.025937	-8.014908
0.007740	-22.045073	-8.026087
0.007750	-22.081218	-8.041869
0.007760	-22.113111	-8.056007
0.007770	-22.108859	-8.067515
0.007780	-22.079092	-8.076393
0.007790	-22.015306	-8.102367
0.007800	-21.913248	-8.113546
0.007810	-21.794180	-8.071132
0.007820	-21.715510	-8.049103
0.007830	-21.590064	-8.037595
0.007840	-21.417841	-8.024443
0.007850	-21.213725	-8.008332
0.007860	-20.981968	-7.990906
0.007870	-20.735328	-7.972823
0.007880	-20.495067	-7.956712
0.007890	-20.278193	-7.945862
0.007900	-20.108097	-7.932710
0.007910	-19.997534	-7.921202
0.007920	-19.935874	-7.915941
0.007930	-19.903981	-7.915613
0.007940	-19.891223	-7.920545
0.007950	-19.889097	-7.928107
0.007960	-19.891223	-7.937642
0.007970	-19.895476	-7.947506
0.007980	-19.869961	-7.956383
0.007990	-19.855078	-7.965918
0.008000	-19.827437	-7.977426
0.008010	-19.776408	-8.021155
0.008020	-19.665845	-7.989920
0.008030	-19.589302	-7.949478
0.008040	-19.451098	-7.932381
0.008050	-19.238478	-7.912982
0.008060	-18.989711	-7.893255
0.008070	-18.740945	-7.872541
0.008080	-18.485800	-7.853800
0.008090	-18.254044	-7.837360
0.008100	-18.052054	-7.825523
0.008110	-17.890462	-7.813029
0.008120	-17.771395	-7.799220
0.008130	-17.699103	-7.790671
0.008140	-17.652327	-7.787383
0.008150	-17.633191	-7.789027
0.008160	-17.635317	-7.794617
0.008170	-17.650201	-7.805467
0.008180	-17.677841	-7.818290
0.008190	-17.699103	-7.831442
0.008200	-17.707608	-7.842621
0.008210	-17.690599	-7.856101
0.008220	-17.635317	-7.902461
0.008230	-17.516250	-7.857087
0.008240	-17.431201	-7.819276
0.008250	-17.295124	-7.801193
0.008260	-17.086756	-7.780807
0.008270	-16.848621	-7.759107
0.008280	-16.599855	-7.737407
0.008290	-16.338331	-7.714720
0.008300	-16.087439	-7.694006
0.008310	-15.859935	-7.677237
0.008320	-15.664324	-7.663428
0.008330	-15.519742	-7.646989
0.008340	-15.417684	-7.632850
0.008350	-15.368781	-7.624959
0.008360	-15.360276	-7.625288
0.008370	-15.375160	-7.631206
0.008380	-15.411305	-7.643372
0.008390	-15.460208	-7.656524
0.008400	-15.504858	-7.670333
0.008410	-15.523994	-7.682169
0.008420	-15.517615	-7.692691
0.008430	-15.481470	-7.733132
0.008440	-15.383664	-7.718337
0.008450	-15.275228	-7.664415
0.008460	-15.168918	-7.640084
0.008470	-14.975433	-7.618712
0.008480	-14.741550	-7.594710
0.008490	-14.475774	-7.568078
0.008500	-14.201494	-7.541446
0.008510	-13.929340	-7.515471
0.008520	-13.676321	-7.493113
0.008530	-13.457322	-7.476345
0.008540	-13.282973	-7.458919
0.008550	-13.153274	-7.439520
0.008560	-13.085236	-7.425053
0.008570	-13.057595	-7.419464
0.008580	-13.068226	-7.420779
0.008590	-13.108624	-7.428999
0.008600	-13.161779	-7.440506
0.008610	-13.212808	-7.455631
0.008620	-13.259585	-7.469111
0.008630	-13.295730	-7.481605
0.008640	-13.297856	-7.493113
0.008650	-13.257459	-7.546378
0.008660	-13.146896	-7.506265
0.008670	-13.046964	-7.450370
0.008680	-12.936402	-7.424724
0.008690	-12.738664	-7.400065
0.008700	-12.492025	-7.371460
0.008710	-12.213492	-7.341540
0.008720	-11.924328	-7.310633
0.008730	-11.639416	-7.280055
0.008740	-11.371515	-7.252108
0.008750	-11.137632	-7.229750
0.008760	-10.942021	-7.211666
0.008770	-10.782556	-7.189966
0.008780	-10.680498	-7.169581
0.008790	-10.623091	-7.154785
0.008800	-10.606081	-7.146565
0.008810	-10.616712	-7.143935
0.008820	-10.652857	-7.149853
0.008830	-10.703886	-7.160374
0.008840	-10.759168	-7.172211
0.008850	-10.810197	-7.183061
0.008860	-10.848468	-7.192267
0.008870	-10.865478	-7.199501
0.008880	-10.852721	-7.208049
0.008890	-10.805944	-7.254081
0.008900	-10.703886	-7.232051
0.008910	-10.595450	-7.163991
0.008920	-10.484887	-7.129139
0.008930	-10.316917	-7.103822
0.008940	-10.097918	-7.074888
0.008950	-9.842773	-7.041680
0.008960	-9.568493	-7.008801
0.008970	-9.281456	-6.975264
0.008980	-8.998670	-6.940741
0.008990	-8.739274	-6.909505
0.009000	-8.511770	-6.883530
0.009010	-8.318285	-6.861830
0.009020	-8.152441	-6.839143
0.009030	-8.037626	-6.815470
0.009040	-7.969588	-6.795414
0.009050	-7.941947	-6.781276
0.009060	-7.946200	-6.774371
0.009070	-7.969588	-6.773385
0.009080	-8.009986	-6.778974
0.009090	-8.058888	-6.786865
0.009100	-8.112043	-6.794756
0.009110	-8.160946	-6.801661
0.009120	-8.184334	-6.807250
0.009130	-8.184334	-6.811196
0.009140	-8.150315	-6.830595
0.009150	-8.071646	-6.862488
0.009160	-7.944073	-6.788838
0.009170	-7.848394	-6.737217
0.009180	-7.714443	-6.708284
0.009190	-7.514580	-6.677048
0.009200	-7.287076	-6.643840
0.009210	-7.040437	-6.608988
0.009220	-6.791671	-6.575122
0.009230	-6.517391	-6.539284
0.009240	-6.285635	-6.506733
0.009250	-6.085772	-6.477800
0.009260	-5.907170	-6.453140
0.009270	-5.747705	-6.431111
0.009280	-5.628638	-6.412370
0.009290	-5.520202	-6.395930
0.009300	-5.443658	-6.380477
0.009310	-5.384125	-6.367654
0.009320	-5.350105	-6.357790
0.009330	-5.350105	-6.353187
0.009340	-5.394756	-6.352858
0.009350	-5.447911	-6.348913
0.009360	-5.467046	-6.338391
0.009370	-5.424522	-6.319650
0.009380	-5.337348	-6.294662
0.009390	-5.205523	-6.267043
0.009400	-5.063068	-6.237781
0.009410	-4.912107	-6.208189
0.009420	-4.744137	-6.177611
0.009430	-4.580420	-6.148678
0.009440	-4.425207	-6.120073
0.009450	-4.287004	-6.095084
0.009460	-4.180694	-6.073055
0.009470	-4.106277	-6.056615
0.009480	-4.076510	-6.044779
0.009490	-4.089267	-6.035573
0.009500	-4.114781	-6.025709
0.009510	-4.046743	-6.077329
0.009520	-4.029733	-6.012557
0.009530	-3.965947	-5.979678
0.009540	-3.878773	-5.953374
0.009550	-3.772463	-5.925756
0.009560	-3.666153	-5.897151
0.009570	-3.551338	-5.866573
0.009580	-3.413135	-5.834351
0.009590	-3.257922	-5.797198
0.009600	-3.075069	-5.754454
0.009610	-2.860322	-5.706122
0.009620	-2.600925	-5.651871
0.009630	-2.305383	-5.601566
0.009640	-2.011967	-5.562439
0.009650	-1.784464	-5.530875
0.009660	-1.614368	-5.500626
0.009670	-1.499553	-5.470706
0.009680	-1.406000	-5.442758
0.009690	-1.346466	-5.418757
0.009700	-1.314573	-5.399358
0.009710	-1.329457	-5.387192
0.009720	-1.410252	-5.381932
0.009730	-1.529320	-5.374698
0.009740	-1.614368	-5.374369
0.009750	-1.556960	-5.393768
0.009760	-1.503805	-5.316173
0.009770	-1.376233	-5.268498
0.009780	-1.210389	-5.218193
0.009790	-0.997769	-5.164599
0.009800	-0.749004	-5.107718
0.009810	-0.474724	-5.055111
0.009820	-0.208948	-5.024205
0.009830	-0.051610	-4.990010
0.009840	0.007924	-4.964364
0.009850	0.007924	-4.949240
0.009860	-0.098386	-4.930170
0.009870	-0.164298	-4.906825
0.009880	-0.130279	-4.916689
0.009890	-0.004833	-4.826929
0.009900	0.205661	-4.764458
0.009910	0.439543	-4.704946
0.009920	0.667047	-4.654641
0.009930	0.864783	-4.615515
0.009940	1.013617	-4.592828
0.009950	1.051889	-4.572114
0.009960	0.951958	-4.556332
0.009970	0.849900	-4.531015
0.009980	0.979598	-4.589375
0.009990	0.998734	-4.494190

