LabVIEW Measurement	
Writer_Version	2
Reader_Version	2
Separator	Tab
Decimal_Separator	.
Multi_Headings	Yes
X_Columns	One
Time_Pref	Relative
Operator	e014
Description	Hysteresis Loop Data
Date	2015/08/26
Time	15:52:10.6725869178771972656
***End_of_Header***	
	
Channels	2		
Samples	1000	1000	
Date	2015/08/26	2015/08/26	
Time	15:52:10.6725869178771972656	15:52:10.6725869178771972656	
Y_Unit_Label	V	V	
X_Dimension	Time	Time	
X0	0.0000000000000000E+0	0.0000000000000000E+0	
Delta_X	1.000000E-5	1.000000E-5	
***End_of_Header***			
X_Value	Applied Voltage	Sense Voltage	Comment
0.000000	12.063478	0.229259
1.000000E-5	11.827470	0.423905
2.000000E-5	9.962794	0.604742
3.000000E-5	9.469515	0.506104
4.000000E-5	11.198115	0.232876
5.000000E-5	11.676510	0.378861
6.000000E-5	9.894755	0.567917
7.000000E-5	8.965606	0.547532
8.000000E-5	10.305112	0.334145
9.000000E-5	11.431997	0.348612
1.000000E-4	9.979803	0.530763
0.000110	8.568007	0.583042
0.000120	9.439749	0.385108
0.000130	11.032272	0.306526
0.000140	10.009570	0.479143
0.000150	8.246951	0.605729
0.000160	8.582890	0.424234
0.000170	10.475208	0.241096
0.000180	9.933027	0.429166
0.000190	8.017321	0.599481
0.000200	7.845099	0.459415
0.000210	9.692766	0.182570
0.000220	9.773562	0.376230
0.000230	7.932273	0.561013
0.000240	7.224249	0.499199
0.000250	8.791258	0.262467
0.000260	9.571573	0.338419
0.000270	7.908885	0.523530
0.000280	6.762863	0.539970
0.000290	7.876992	0.334473
0.000300	9.252643	0.306855
0.000310	7.970545	0.481773
0.000320	6.403536	0.570876
0.000330	7.028638	0.379518
0.000340	8.767870	0.249973
0.000350	7.998185	0.423248
0.000360	6.180285	0.577781
0.000370	6.190916	0.423248
0.000380	8.066224	0.170734
0.000390	7.959914	0.366038
0.000400	6.069722	0.551149
0.000410	5.504153	0.461717
0.000420	7.200861	0.206244
0.000430	7.734537	0.323294
0.000440	5.999558	0.511693
0.000450	4.987486	0.499857
0.000460	6.252575	0.291073
0.000470	7.430490	0.292059
0.000480	5.997431	0.468950
0.000490	4.570751	0.536024
0.000500	5.353193	0.338748
0.000510	6.994619	0.247672
0.000520	6.073975	0.416014
0.000530	4.311355	0.552464
0.000540	4.528227	0.383464
0.000550	6.401409	0.178296
0.000560	6.061217	0.357818
0.000570	4.183783	0.537339
0.000580	3.809571	0.423577
0.000590	5.621094	0.143444
0.000600	5.927267	0.317376
0.000610	4.115744	0.501172
0.000620	3.241876	0.459415
0.000630	4.698323	0.247014
0.000640	5.646608	0.276277
0.000650	4.081725	0.458429
0.000660	2.793248	0.495254
0.000670	3.733028	0.295018
0.000680	5.238378	0.238137
0.000690	4.094482	0.407137
0.000700	2.440298	0.523859
0.000710	2.882548	0.340720
0.000720	4.674935	0.173693
0.000730	4.139132	0.349269
0.000740	2.278707	0.517612
0.000750	2.106485	0.384450
0.000760	3.975415	0.106948
0.000770	4.079599	0.297648
0.000780	2.227678	0.486376
0.000790	1.506896	0.423248
0.000800	3.093042	0.196709
0.000810	3.879736	0.260495
0.000820	2.214921	0.444619
0.000830	1.032753	0.458429
0.000840	2.131999	0.257536
0.000850	3.482137	0.223341
0.000860	2.200037	0.396287
0.000870	0.635154	0.487691
0.000880	1.185840	0.299292
0.000890	2.935703	0.161199
0.000900	2.208542	0.336117
0.000910	0.392767	0.492952
0.000920	0.394893	0.344337
0.000930	2.253193	0.089851
0.000940	2.193659	0.283181
0.000950	0.328981	0.467635
0.000960	-0.242968	0.385765
0.000970	1.468624	0.129306
0.000980	2.063961	0.241096
0.000990	0.328981	0.429495
0.001000	-0.714984	0.421275
0.001010	0.547979	0.217423
0.001020	1.753535	0.207888
0.001030	0.331107	0.385765
0.001040	-1.146603	0.451853
0.001050	-0.419442	0.259508
0.001060	1.277266	0.153637
0.001070	0.333233	0.327569
0.001080	-1.425136	0.467306
0.001090	-1.214642	0.297977
0.001100	0.633027	0.088207
0.001110	0.311971	0.271345
0.001120	-1.556960	0.449551
0.001130	-1.901405	0.338090
0.001140	-0.079250	0.055327
0.001150	0.205661	0.228930
0.001160	-1.610115	0.417329
0.001170	-2.435082	0.374586
0.001180	-0.950993	0.160870
0.001190	-0.006959	0.193421
0.001200	-1.590979	0.374915
0.001210	-2.885837	0.408781
0.001220	-1.912036	0.210518
0.001230	-0.447083	0.149362
0.001240	-1.612242	0.323952
0.001250	-3.255796	0.432783
0.001260	-2.832681	0.248987
0.001270	-1.050924	0.082946
0.001280	-1.659018	0.262796
0.001290	-3.519445	0.430810
0.001300	-3.572600	0.285812
0.001310	-1.716425	0.024749
0.001320	-1.735561	0.217094
0.001330	-3.612998	0.404507
0.001340	-4.178568	0.320993
0.001350	-2.413820	0.052039
0.001360	-1.941803	0.180927
0.001370	-3.666153	0.372942
0.001380	-4.639954	0.351242
0.001390	-3.298320	0.144430
0.001400	-2.184190	0.149362
0.001410	-3.666153	0.327240
0.001420	-5.080078	0.382149
0.001430	-4.252985	0.187174
0.001440	-2.677469	0.097413
0.001450	-3.687415	0.270687
0.001460	-5.401134	0.398917
0.001470	-5.160873	0.226629
0.001480	-3.328087	0.024421
0.001490	-3.744822	0.210518
0.001500	-5.594619	0.384121
0.001510	-5.860394	0.265427
0.001520	-4.059500	-0.018323
0.001530	-3.814987	0.163172
0.001540	-5.630764	0.350255
0.001550	-6.415333	0.303896
0.001560	-4.867457	0.081302
0.001570	-3.997840	0.127662
0.001580	-5.620133	0.311458
0.001590	-6.836321	0.334802
0.001600	-5.790229	0.135224
0.001610	-4.376304	0.089193
0.001620	-5.609502	0.263125
0.001630	-7.225416	0.361106
0.001640	-6.689613	0.170076
0.001650	-4.931243	0.024092
0.001660	-5.692424	0.205257
0.001670	-7.489066	0.358475
0.001680	-7.512454	0.207559
0.001690	-5.686045	-0.045941
0.001700	-5.794482	0.148047
0.001710	-7.652783	0.330528
0.001720	-8.152441	0.246685
0.001730	-6.464236	-0.022268
0.001740	-5.913549	0.107277
0.001750	-7.650657	0.293703
0.001760	-8.628711	0.282195
0.001770	-7.310465	0.074397
0.001780	-6.172946	0.073740
0.001790	-7.620890	0.252604
0.001800	-9.034816	0.310471
0.001810	-8.199218	0.114181
0.001820	-6.617322	0.024092
0.001830	-7.620890	0.198353
0.001840	-9.353747	0.325596
0.001850	-9.094350	0.152650
0.001860	-7.284950	-0.054161
0.001870	-7.725074	0.140485
0.001880	-9.566367	0.308499
0.001890	-9.830016	0.183228
0.001900	-8.033374	-0.098877
0.001910	-7.850520	0.086234
0.001920	-9.672677	0.271674
0.001930	-10.395587	0.222355
0.001940	-8.851962	-0.012733
0.001950	-8.018490	0.051053
0.001960	-9.683308	0.236822
0.001970	-10.818701	0.252604
0.001980	-9.683308	0.048751
0.001990	-8.371440	0.016858
0.002000	-9.662046	0.189804
0.002010	-11.203544	0.275619
0.002020	-10.572062	0.086891
0.002030	-8.883855	-0.048243
0.002040	-9.668425	0.129963
0.002050	-11.458689	0.279236
0.002060	-11.439553	0.123388
0.002070	-9.613143	-0.130441
0.002080	-9.787492	0.067821
0.002090	-11.624533	0.247343
0.002100	-12.119939	0.158240
0.002110	-10.442363	-0.108741
0.002120	-9.929948	0.021790
0.002130	-11.675562	0.206572
0.002140	-12.600461	0.195393
0.002150	-11.301350	-0.012733
0.002160	-10.172335	-0.012733
0.002170	-11.603271	0.163172
0.002180	-13.006566	0.224656
0.002190	-12.190103	0.030010
0.002200	-10.593324	-0.067642
0.002210	-11.545863	0.103002
0.002220	-13.285099	0.237808
0.002230	-13.091615	0.071438
0.002240	-11.269457	-0.157731
0.002250	-11.573504	0.036915
0.002260	-13.427555	0.211504
0.002270	-13.852796	0.108263
0.002280	-12.130570	-0.161019
0.002290	-11.747853	-0.015364
0.002300	-13.497720	0.166460
0.002310	-14.388600	0.143115
0.002320	-13.051217	-0.068299
0.002330	-11.996619	-0.055148
0.002340	-13.491341	0.121415
0.002350	-14.811715	0.175008
0.002360	-13.929340	-0.023912
0.002370	-12.398472	-0.102823
0.002380	-13.433934	0.064533
0.002390	-15.105131	0.189475
0.002400	-14.792579	0.017187
0.002410	-12.978926	-0.188309
0.002420	-13.393536	-0.003198
0.002430	-15.236956	0.169748
0.002440	-15.545256	0.054341
0.002450	-13.791136	-0.223161
0.002460	-13.512603	-0.055148
0.002470	-15.298616	0.123388
0.002480	-16.138468	0.087549
0.002490	-14.728793	-0.121235
0.002500	-13.799641	-0.101508
0.002510	-15.330509	0.076370
0.002520	-16.580719	0.118127
0.002530	-15.691964	-0.080794
0.002540	-14.195115	-0.150169
0.002550	-15.273102	0.017187
0.002560	-16.918786	0.135882
0.002570	-16.544573	-0.040352
0.002580	-14.764938	-0.229080
0.002590	-15.232704	-0.049229
0.002600	-17.063368	0.117469
0.002610	-17.301503	-0.002212
0.002620	-15.496353	-0.282673
0.002630	-15.302869	-0.109399
0.002640	-17.093134	0.073740
0.002650	-17.884084	0.031983
0.002660	-16.440389	-0.176801
0.002670	-15.538877	-0.155101
0.002680	-17.082503	0.023763
0.002690	-18.356102	0.060259
0.002700	-17.388677	-0.139648
0.002710	-15.974750	-0.205735
0.002720	-17.110144	-0.035749
0.002730	-18.709052	0.075384
0.002740	-18.322082	-0.103152
0.002750	-16.567961	-0.286947
0.002760	-17.071872	-0.107755
0.002770	-18.883401	0.056642
0.002780	-19.076886	-0.065340
0.002790	-17.286619	-0.346459
0.002800	-17.118649	-0.166938
0.002810	-18.906789	0.014228
0.002820	-19.655214	-0.032132
0.002830	-18.156238	-0.246835
0.002840	-17.292998	-0.214284
0.002850	-18.866391	-0.037064
0.002860	-20.093213	-0.004842
0.002870	-19.130041	-0.201461
0.002880	-17.707608	-0.271165
0.002890	-18.834498	-0.100192
0.002900	-20.458921	0.009625
0.002910	-20.088961	-0.167924
0.002920	-18.345470	-0.360926
0.002930	-18.866391	-0.176801
0.002940	-20.667289	-0.013062
0.002950	-20.879910	-0.134058
0.002960	-19.130041	-0.416163
0.002970	-18.942935	-0.238615
0.002980	-20.711940	-0.059751
0.002990	-21.445482	-0.101179
0.003000	-19.974146	-0.317196
0.003010	-19.104527	-0.286290
0.003020	-20.643901	-0.109727
0.003030	-21.866471	-0.074875
0.003040	-20.877784	-0.275111
0.003050	-19.468108	-0.342185
0.003060	-20.588620	-0.173842
0.003070	-22.210917	-0.063696
0.003080	-21.830325	-0.240587
0.003090	-20.095339	-0.436877
0.003100	-20.599251	-0.251438
0.003110	-22.404402	-0.090657
0.003120	-22.655295	-0.211982
0.003130	-20.913930	-0.492444
0.003140	-20.728949	-0.319827
0.003150	-22.493703	-0.142278
0.003160	-23.227245	-0.182720
0.003170	-21.804811	-0.399066
0.003180	-20.903299	-0.371119
0.003190	-22.434169	-0.196858
0.003200	-23.654613	-0.155759
0.003210	-22.714828	-0.355008
0.003220	-21.269006	-0.430959
0.003230	-22.344868	-0.264589
0.003240	-23.965040	-0.148854
0.003250	-23.635477	-0.325087
0.003260	-21.864345	-0.527953
0.003270	-22.344868	-0.343500
0.003280	-24.152146	-0.180089
0.003290	-24.420048	-0.296811
0.003300	-22.708450	-0.569053
0.003310	-22.461810	-0.412547
0.003320	-24.245699	-0.234012
0.003330	-25.017513	-0.278070
0.003340	-23.554681	-0.499019
0.003350	-22.721207	-0.465154
0.003360	-24.328621	-0.286947
0.003370	-25.464018	-0.262945
0.003380	-24.403039	-0.470414
0.003390	-23.055022	-0.515459
0.003400	-24.315864	-0.346130
0.003410	-25.823347	-0.257027
0.003420	-25.247144	-0.443453
0.003430	-23.582322	-0.601932
0.003440	-24.247825	-0.429315
0.003450	-25.984939	-0.279056
0.003460	-26.106133	-0.415835
0.003470	-24.326495	-0.690377
0.003480	-24.281845	-0.508883
0.003490	-26.023211	-0.336266
0.003500	-26.722734	-0.392161
0.003510	-25.274785	-0.602590
0.003520	-24.498718	-0.573327
0.003530	-26.006201	-0.403012
0.003540	-27.220268	-0.374078
0.003550	-26.295366	-0.571683
0.003560	-24.813397	-0.636784
0.003570	-25.657503	-0.471730
0.003580	-27.073559	-0.358953
0.003590	-26.535628	-0.531570
0.003600	-24.562504	-0.734436
0.003610	-24.790009	-0.549325
0.003620	-26.357026	-0.382298
0.003630	-26.535628	-0.490142
0.003640	-24.598650	-0.756794
0.003650	-24.054340	-0.610481
0.003660	-25.563949	-0.429315
0.003670	-26.265599	-0.448056
0.003680	-24.770873	-0.647963
0.003690	-23.476011	-0.648949
0.003700	-24.670941	-0.476004
0.003710	-25.861619	-0.404327
0.003720	-24.913329	-0.595685
0.003730	-23.093294	-0.705831
0.003740	-23.737535	-0.537817
0.003750	-25.255649	-0.390189
0.003760	-24.955853	-0.540119
0.003770	-22.918944	-0.786057
0.003780	-22.829644	-0.595356
0.003790	-24.471077	-0.413204
0.003800	-24.819776	-0.488169
0.003810	-22.959342	-0.723914
0.003820	-22.142878	-0.636455
0.003830	-23.603584	-0.451016
0.003840	-24.485961	-0.441481
0.003850	-23.140070	-0.639414
0.003860	-21.647472	-0.668348
0.003870	-22.761605	-0.494745
0.003880	-24.054340	-0.400710
0.003890	-23.248507	-0.591082
0.003900	-21.324288	-0.720955
0.003910	-21.926005	-0.542091
0.003920	-23.510031	-0.387558
0.003930	-23.214488	-0.543078
0.003940	-21.122298	-0.779809
0.003950	-21.132929	-0.586150
0.003960	-22.819013	-0.399395
0.003970	-23.010371	-0.497047
0.003980	-20.990473	-0.785399
0.003990	-20.403640	-0.615741
0.004000	-22.036568	-0.422739
0.004010	-22.695693	-0.454961
0.004020	-20.975590	-0.672294
0.004030	-19.833816	-0.638428
0.004040	-21.209473	-0.457920
0.004050	-22.291713	-0.414191
0.004060	-21.120172	-0.613111
0.004070	-19.423458	-0.669335
0.004080	-20.399387	-0.500663
0.004090	-21.832452	-0.379996
0.004100	-21.194589	-0.563134
0.004110	-19.185322	-0.725558
0.004120	-19.625447	-0.540776
0.004130	-21.264754	-0.374407
0.004140	-21.107415	-0.517103
0.004150	-18.996090	-0.775864
0.004160	-18.872770	-0.577601
0.004170	-20.571610	-0.386243
0.004180	-20.860774	-0.471730
0.004190	-18.857886	-0.756136
0.004200	-18.166869	-0.602261
0.004210	-19.787039	-0.407944
0.004220	-20.516329	-0.431617
0.004230	-18.832372	-0.646319
0.004240	-17.620434	-0.621988
0.004250	-19.017352	-0.432603
0.004260	-20.114475	-0.395449
0.004270	-18.894032	-0.597658
0.004280	-17.214328	-0.644675
0.004290	-18.273179	-0.466469
0.004300	-19.663719	-0.362899
0.004310	-18.934430	-0.547352
0.004320	-16.982572	-0.696625
0.004330	-17.439706	-0.518418
0.004340	-19.055624	-0.355337
0.004350	-18.913168	-0.492772
0.004360	-16.840116	-0.755479
0.004370	-16.638126	-0.560504
0.004380	-18.294442	-0.371776
0.004390	-18.685664	-0.439837
0.004400	-16.803970	-0.687418
0.004410	-15.923721	-0.588780
0.004420	-17.426949	-0.399724
0.004430	-18.319956	-0.393477
0.004440	-16.878388	-0.593712
0.004450	-15.417684	-0.610809
0.004460	-16.593476	-0.433589
0.004470	-17.894715	-0.352706
0.004480	-17.016591	-0.541105
0.004490	-15.122141	-0.661444
0.004500	-15.766382	-0.482580
0.004510	-17.348279	-0.331992
0.004520	-17.044232	-0.488498
0.004530	-14.994569	-0.726216
0.004540	-14.977559	-0.529926
0.004550	-16.640252	-0.346788
0.004560	-16.899650	-0.435233
0.004570	-14.935035	-0.712078
0.004580	-14.250397	-0.563134
0.004590	-15.821663	-0.370461
0.004600	-16.546699	-0.383942
0.004610	-14.954171	-0.592397
0.004620	-13.631671	-0.581547
0.004630	-14.920151	-0.399395
0.004640	-16.125710	-0.340870
0.004650	-15.041345	-0.534858
0.004660	-13.246828	-0.616399
0.004670	-14.093057	-0.442138
0.004680	-15.613295	-0.311936
0.004690	-15.130646	-0.483895
0.004700	-13.083110	-0.684130
0.004710	-13.312740	-0.492772
0.004720	-14.983938	-0.316210
0.004730	-15.051976	-0.432932
0.004740	-13.032081	-0.716681
0.004750	-12.604714	-0.528611
0.004760	-14.227008	-0.339554
0.004770	-14.788327	-0.382298
0.004780	-13.021450	-0.613769
0.004790	-11.939211	-0.551298
0.004800	-13.378652	-0.363556
0.004810	-14.358833	-0.335280
0.004820	-13.044838	-0.536502
0.004830	-11.431048	-0.571354
0.004840	-12.483520	-0.397093
0.004850	-13.895320	-0.298126
0.004860	-13.112877	-0.482251
0.004870	-11.141884	-0.627578
0.004880	-11.675562	-0.445755
0.004890	-13.297856	-0.284646
0.004900	-13.142643	-0.433261
0.004910	-11.061089	-0.691364
0.004920	-10.942021	-0.490800
0.004930	-12.619597	-0.303387
0.004940	-12.959790	-0.382626
0.004950	-11.069594	-0.648621
0.004960	-10.291403	-0.519076
0.004970	-11.820144	-0.329033
0.004980	-12.611092	-0.333636
0.004990	-11.073846	-0.543078
0.005000	-9.693939	-0.536173
0.005010	-10.965409	-0.355994
0.005020	-12.164589	-0.289249
0.005030	-11.097234	-0.487512
0.005040	-9.260194	-0.567080
0.005050	-10.068151	-0.392490
0.005060	-11.656426	-0.260973
0.005070	-11.097234	-0.439508
0.005080	-9.009301	-0.623961
0.005090	-9.381387	-0.430630
0.005100	-11.078098	-0.256698
0.005110	-10.999429	-0.399724
0.005120	-8.885982	-0.669992
0.005130	-8.713759	-0.466798
0.005140	-10.384956	-0.279385
0.005150	-10.780430	-0.350733
0.005160	-8.905117	-0.609165
0.005170	-8.067393	-0.495074
0.005180	-9.579124	-0.304702
0.005190	-10.416849	-0.300099
0.005200	-8.949768	-0.507239
0.005210	-7.489066	-0.512500
0.005220	-8.681866	-0.334951
0.005230	-9.961841	-0.255712
0.005240	-8.994418	-0.448056
0.005250	-7.104223	-0.551955
0.005260	-7.780356	-0.379010
0.005270	-9.381387	-0.232368
0.005280	-9.032690	-0.393805
0.005290	-6.949010	-0.626591
0.005300	-7.023427	-0.427014
0.005310	-8.707380	-0.243218
0.005320	-8.934884	-0.345144
0.005330	-6.955389	-0.627907
0.005340	-6.360052	-0.460222
0.005350	-7.963209	-0.269850
0.005360	-8.639342	-0.295167
0.005370	-6.966020	-0.514473
0.005380	-5.790229	-0.480278
0.005390	-7.146747	-0.292208
0.005400	-8.237489	-0.251109
0.005410	-6.970272	-0.455947
0.005420	-5.301203	-0.496389
0.005430	-6.306897	-0.326074
0.005440	-7.742084	-0.216914
0.005450	-6.955389	-0.400381
0.005460	-4.978020	-0.549325
0.005470	-5.426649	-0.369475
0.005480	-7.099970	-0.204420
0.005490	-6.966020	-0.347117
0.005500	-4.869583	-0.614426
0.005510	-4.705866	-0.412218
0.005520	-6.385566	-0.224805
0.005530	-6.791671	-0.299770
0.005540	-4.926991	-0.550969
0.005550	-4.076510	-0.439837
0.005560	-5.603123	-0.252424
0.005570	-6.449352	-0.248478
0.005580	-4.978020	-0.455947
0.005590	-3.559843	-0.459893
0.005600	-4.750516	-0.281687
0.005610	-6.002850	-0.204091
0.005620	-5.043932	-0.403340
0.005630	-3.155864	-0.491786
0.005640	-3.878773	-0.322128
0.005650	-5.447911	-0.178117
0.005660	-5.003534	-0.343829
0.005670	-2.928361	-0.558202
0.005680	-3.034671	-0.369146
0.005690	-4.727128	-0.183706
0.005700	-4.926991	-0.291550
0.005710	-2.907099	-0.571025
0.005720	-2.367043	-0.402354
0.005730	-3.972326	-0.211325
0.005740	-4.646332	-0.242889
0.005750	-3.009156	-0.458249
0.005760	-1.801473	-0.424712
0.005770	-3.243038	-0.239272
0.005780	-4.257237	-0.196200
0.005790	-3.062311	-0.396436
0.005800	-1.361350	-0.445755
0.005810	-2.354286	-0.273467
0.005820	-3.772463	-0.160690
0.005830	-3.075069	-0.343500
0.005840	-1.057303	-0.495403
0.005850	-1.457029	-0.319498
0.005860	-3.115466	-0.149511
0.005870	-3.011282	-0.285632
0.005880	-0.923352	-0.556558
0.005890	-0.668208	-0.358296
0.005900	-2.343655	-0.167266
0.005910	-2.813546	-0.235984
0.005920	-0.953119	-0.472058
0.005930	-0.057988	-0.386901
0.005940	-1.546329	-0.196529
0.005950	-2.464848	-0.186665
0.005960	-1.078565	-0.390517
0.005970	0.420407	-0.406300
0.005980	-0.721363	-0.230395
0.005990	-2.041734	-0.142278
0.006000	-1.176370	-0.332979
0.006010	0.735085	-0.450687
0.006020	0.148253	-0.280043
0.006030	-1.442145	-0.121235
0.006040	-1.169992	-0.277084
0.006050	0.941326	-0.511514
0.006060	0.928569	-0.318840
0.006070	-0.717111	-0.131428
0.006080	-1.040293	-0.221189
0.006090	0.917938	-0.483237
0.006100	1.632342	-0.351720
0.006110	0.084467	-0.159375
0.006120	-0.721363	-0.171212
0.006130	0.781861	-0.374407
0.006140	2.159640	-0.373091
0.006150	0.915812	-0.193570
0.006160	-0.319511	-0.122222
0.006170	0.658542	-0.316539
0.006180	2.499832	-0.409916
0.006190	1.789681	-0.238943
0.006200	0.237554	-0.094274
0.006210	0.688309	-0.260315
0.006220	2.725209	-0.470414
0.006230	2.621025	-0.277741
0.006240	0.956210	-0.098220
0.006250	0.777609	-0.200803
0.006260	2.780490	-0.480278
0.006270	3.407720	-0.316539
0.006280	1.815195	-0.124852
0.006290	1.077403	-0.147210
0.006300	2.678433	-0.354021
0.006310	3.958405	-0.340212
0.006320	2.663549	-0.156745
0.006330	1.472877	-0.098548
0.006340	2.489201	-0.293194
0.006350	4.311355	-0.375722
0.006360	3.528913	-0.204749
0.006370	1.993796	-0.066984
0.006380	2.419036	-0.232368
0.006390	4.472946	-0.443124
0.006400	4.356005	-0.254068
0.006410	2.701821	-0.071916
0.006420	2.531725	-0.172856
0.006430	4.530353	-0.457263
0.006440	5.144825	-0.286947
0.006450	3.556554	-0.094932
0.006460	2.844276	-0.115317
0.006470	4.464441	-0.324759
0.006480	5.765676	-0.308977
0.006490	4.475072	-0.124852
0.006500	3.269516	-0.065998
0.006510	4.302850	-0.257356
0.006520	6.122877	-0.348103
0.006530	5.348940	-0.174829
0.006540	3.811698	-0.033118
0.006550	4.171025	-0.197844
0.006560	6.233440	-0.418136
0.006570	6.176032	-0.227107
0.006580	4.509091	-0.042982
0.006590	4.266704	-0.136689
0.006600	6.210051	-0.406628
0.006610	6.905319	-0.257027
0.006620	5.338309	-0.068628
0.006630	4.594139	-0.079150
0.006640	6.137761	-0.287934
0.006650	7.515538	-0.279385
0.006660	6.297226	-0.100850
0.006670	5.030010	-0.026543
0.006680	6.027198	-0.218229
0.006690	7.904633	-0.319827
0.006700	7.243385	-0.148525
0.006710	5.650861	0.002063
0.006720	5.916636	-0.154115
0.006730	8.004564	-0.397422
0.006740	8.047088	-0.200803
0.006750	6.386526	-0.012404
0.006760	6.033577	-0.095918
0.006770	7.898254	-0.353035
0.006780	8.714715	-0.230724
0.006790	7.209365	-0.041996
0.006800	6.358885	-0.036406
0.006810	7.766430	-0.240587
0.006820	9.250517	-0.251766
0.006830	8.136388	-0.076519
0.006840	6.818145	0.015872
0.006850	7.653741	-0.173842
0.006860	9.611971	-0.297469
0.006870	9.095304	-0.128469
0.006880	7.473014	0.036586
0.006890	7.634605	-0.104467
0.006900	9.705523	-0.369475
0.006910	9.939405	-0.173842
0.006920	8.289475	0.017187
0.006930	7.787692	-0.044626
0.006940	9.575825	-0.268206
0.006950	10.583644	-0.203434
0.006960	9.152712	-0.016021
0.006970	8.147019	0.013899
0.006980	9.339817	-0.182720
0.006990	11.000379	-0.230724
0.007000	10.086113	-0.061395
0.007010	8.633919	0.061574
0.007020	9.201614	-0.114659
0.007030	11.225756	-0.295496
0.007040	10.994000	-0.115646
0.007050	9.361079	0.064205
0.007060	9.256895	-0.047257
0.007070	11.268280	-0.339883
0.007080	11.825344	-0.151484
0.007090	10.241326	0.042504
0.007100	9.541806	0.018173
0.007110	11.138582	-0.186336
0.007120	12.446194	-0.173842
0.007130	11.215125	0.005679
0.007140	9.967046	0.074068
0.007150	10.883438	-0.113344
0.007160	12.767250	-0.223161
0.007170	12.116633	-0.049229
0.007180	10.547498	0.105304
0.007190	10.760118	-0.044297
0.007200	12.792764	-0.296811
0.007210	12.964986	-0.100521
0.007220	11.332066	0.087549
0.007230	10.898321	0.025407
0.007240	12.690707	-0.224148
0.007250	13.694272	-0.128469
0.007260	12.218691	0.064862
0.007270	11.276785	0.084919
0.007280	12.641804	-0.121564
0.007290	14.244958	-0.144580
0.007300	13.158470	0.030996
0.007310	11.774315	0.133909
0.007320	12.497223	-0.046270
0.007330	14.476713	-0.205078
0.007340	14.115260	-0.027200
0.007350	12.482339	0.146403
0.007360	12.407922	0.018173
0.007370	14.466082	-0.254726
0.007380	14.891322	-0.071259
0.007390	13.303052	0.117798
0.007400	12.643930	0.091166
0.007410	14.210939	-0.114002
0.007420	15.493036	-0.094603
0.007430	14.259841	0.083932
0.007440	13.056413	0.156596
0.007450	13.987688	-0.034105
0.007460	15.862995	-0.134058
0.007470	15.263407	0.029681
0.007480	13.692146	0.189475
0.007490	13.906892	0.044148
0.007500	15.965052	-0.208366
0.007510	16.203186	-0.017007
0.007520	14.570266	0.173035
0.007530	14.064231	0.117469
0.007540	15.809840	-0.096576
0.007550	16.883570	-0.047585
0.007560	15.522803	0.139827
0.007570	14.425685	0.184543
0.007580	15.503667	-0.007144
0.007590	17.266285	-0.083424
0.007600	16.496602	0.085247
0.007610	14.976370	0.229917
0.007620	15.303805	0.072753
0.007630	17.317314	-0.159047
0.007640	17.398110	0.032640
0.007650	15.775821	0.218409
0.007660	15.393105	0.149691
0.007670	17.221635	-0.098548
0.007680	18.174172	0.002063
0.007690	16.760250	0.190133
0.007700	15.782199	0.223670
0.007710	16.996258	0.028037
0.007720	18.680207	-0.025227
0.007730	17.844611	0.142458
0.007740	16.311623	0.275290
0.007750	16.773007	0.112537
0.007760	18.809905	-0.105453
0.007770	18.754624	0.085247
0.007780	17.115325	0.271345
0.007790	16.779386	0.186516
0.007800	18.631304	-0.059751
0.007810	19.479657	0.052039
0.007820	18.040221	0.240109
0.007830	17.108947	0.263783
0.007840	18.337889	0.069794
0.007850	19.962304	0.025736
0.007860	19.069301	0.192763
0.007870	17.634118	0.322637
0.007880	18.131648	0.155281
0.007890	20.140905	-0.038050
0.007900	20.077119	0.136868
0.007910	18.450578	0.324281
0.007920	18.165667	0.242740
0.007930	20.040973	-0.003198
0.007940	20.904210	0.107277
0.007950	19.498793	0.291730
0.007960	18.497354	0.321650
0.007970	19.698656	0.129635
0.007980	21.369847	0.074726
0.007990	20.498106	0.243726
0.008000	19.024651	0.379189
0.008010	19.407367	0.217423
0.008020	21.410245	-0.002869
0.008030	21.446390	0.184214
0.008040	19.838985	0.371627
0.008050	19.449890	0.306526
0.008060	21.216761	0.075384
0.008070	22.216073	0.155609
0.008080	20.876569	0.341049
0.008090	19.834732	0.391026
0.008100	20.910588	0.199668
0.008110	22.688089	0.124374
0.008120	21.997075	0.287127
0.008130	20.464087	0.442647
0.008140	20.700095	0.299292
0.008150	22.724234	0.044148
0.008160	22.996388	0.234191
0.008170	21.416623	0.425878
0.008180	20.806405	0.389053
0.008190	22.394674	0.190462
0.008200	23.653383	0.207888
0.008210	22.466965	0.385436
0.008220	21.223139	0.472238
0.008230	21.973687	0.292059
0.008240	23.872381	0.154623
0.008250	23.523685	0.321322
0.008260	21.937542	0.495911
0.008270	21.831232	0.395300
0.008280	23.725673	0.129635
0.008290	24.437949	0.283181
0.008300	23.013397	0.468621
0.008310	22.150161	0.495254
0.008320	23.330201	0.306526
0.008330	24.986508	0.252275
0.008340	24.276358	0.403849
0.008350	22.768885	0.559697
0.008360	22.964495	0.427522
0.008370	24.903587	0.168432
0.008380	25.333078	0.350584
0.008390	23.885138	0.530106
0.008400	23.098445	0.539641
0.008410	24.289116	0.359462
0.008420	25.860375	0.304882
0.008430	25.175740	0.448894
0.008440	23.727800	0.604413
0.008450	23.785207	0.494596
0.008460	25.571212	0.245699
0.008470	26.268605	0.394314
0.008480	25.014149	0.553779
0.008490	24.031846	0.626114
0.008500	24.827043	0.460730
0.008510	26.549263	0.314417
0.008520	26.519496	0.465991
0.008530	25.107701	0.622497
0.008540	24.591036	0.627100
0.008550	25.773201	0.461059
0.008560	27.153103	0.383792
0.008570	26.566273	0.514981
0.008580	24.969499	0.666555
0.008590	24.467716	0.618880
0.008600	25.732803	0.428180
0.008610	26.732116	0.449223
0.008620	25.607358	0.582713
0.008630	24.106263	0.710285
0.008640	24.291242	0.566273
0.008650	25.922035	0.329541
0.008660	26.049607	0.505775
0.008670	24.397552	0.676419
0.008680	23.510927	0.670830
0.008690	24.614424	0.482431
0.008700	25.915656	0.448565
0.008710	24.890829	0.594550
0.008720	23.245153	0.732643
0.008730	23.325948	0.581398
0.008740	25.058799	0.331514
0.008750	25.073682	0.518927
0.008760	23.349336	0.699764
0.008770	22.552013	0.656692
0.008780	23.891517	0.453168
0.008790	24.929101	0.473225
0.008800	23.519432	0.644855
0.008810	22.124647	0.719163
0.008820	22.732739	0.531750
0.008830	24.406056	0.407794
0.008840	23.772450	0.567588
0.008850	21.986444	0.734287
0.008860	21.814222	0.604413
0.008870	23.619364	0.331185
0.008880	23.846867	0.511693
0.008890	22.069366	0.700421
0.008900	21.212508	0.664254
0.008910	22.583905	0.459086
0.008920	23.676771	0.471581
0.008930	22.245840	0.648472
0.008940	20.791521	0.714231
0.008950	21.467652	0.526489
0.008960	23.136717	0.406150
0.008970	22.354276	0.577781
0.008980	20.578901	0.731657
0.008990	20.487475	0.585015
0.009000	22.305374	0.322308
0.009010	22.356402	0.512351
0.009020	20.538504	0.698449
0.009030	19.838985	0.640581
0.009040	21.359216	0.408123
0.009050	22.220326	0.473553
0.009060	20.666075	0.656363
0.009070	19.403114	0.691215
0.009080	20.370534	0.491966
0.009090	21.878008	0.429495
0.009100	20.817035	0.598166
0.009110	19.120330	0.723766
0.009120	19.375474	0.550820
0.009130	21.218887	0.348283
0.009140	20.885074	0.530435
0.009150	19.016146	0.709299
0.009160	18.588780	0.600468
0.009170	20.319505	0.320993
0.009180	20.759628	0.479472
0.009190	19.014020	0.667871
0.009200	18.046600	0.646170
0.009210	19.311688	0.441660
0.009220	20.481096	0.443633
0.009230	19.065049	0.618880
0.009240	17.623487	0.691873
0.009250	18.344268	0.495583
0.009260	20.011207	0.392999
0.009270	19.190494	0.559040
0.009280	17.415119	0.706340
0.009290	17.464022	0.550162
0.009300	19.345707	0.307841
0.009310	19.230892	0.499528
0.009320	17.370469	0.683324
0.009330	16.781512	0.598495
0.009340	18.444199	0.351242
0.009350	19.103320	0.453826
0.009360	17.404488	0.640252
0.009370	16.277603	0.642225
0.009380	17.421498	0.441989
0.009390	18.707848	0.415686
0.009400	17.423624	0.589289
0.009410	15.877878	0.678063
0.009420	16.415806	0.489664
0.009430	18.172046	0.352886
0.009440	17.472527	0.524845
0.009450	15.624861	0.685626
0.009460	15.603599	0.539641
0.009470	17.442760	0.279894
0.009480	17.485284	0.471909
0.009490	15.633365	0.657349
0.009500	14.978496	0.586330
0.009510	16.619921	0.349598
0.009520	17.370469	0.431468
0.009530	15.686520	0.618552
0.009540	14.529868	0.627429
0.009550	15.652501	0.424892
0.009560	17.017520	0.394971
0.009570	15.739675	0.570219
0.009580	14.134396	0.660308
0.009590	14.655314	0.475526
0.009600	16.411554	0.327569
0.009610	15.731170	0.503474
0.009620	13.911145	0.664583
0.009630	13.815466	0.519256
0.009640	15.661006	0.255563
0.009650	15.678015	0.448894
0.009660	13.817592	0.636635
0.009670	13.203121	0.564958
0.009680	14.819031	0.312115
0.009690	15.537686	0.411411
0.009700	13.874999	0.598495
0.009710	12.733231	0.606386
0.009720	13.911145	0.403191
0.009730	15.252776	0.377545
0.009740	13.955795	0.550491
0.009750	12.373903	0.638937
0.009760	12.971365	0.449551
0.009770	14.716974	0.317047
0.009780	13.968552	0.492623
0.009790	12.131516	0.646828
0.009800	12.082614	0.494596
0.009810	13.945164	0.234520
0.009820	13.851611	0.432454
0.009830	12.018828	0.617565
0.009840	11.423492	0.535367
0.009850	13.090432	0.272989
0.009860	13.713408	0.393328
0.009870	11.993314	0.580083
0.009880	10.947224	0.579754
0.009890	12.171914	0.372942
0.009900	13.447633	0.361106
0.009910	12.099624	0.535695
0.009920	10.577265	0.614606
0.009930	11.251270	0.422261
0.009940	12.977744	0.304224
0.009950	12.159157	0.476512
0.009960	10.349762	0.627429
0.009970	10.388033	0.469279
0.009980	11.369274	0.335295
0.009990	12.114507	0.418316

