LabVIEW Measurement	
Writer_Version	2
Reader_Version	2
Separator	Tab
Decimal_Separator	.
Multi_Headings	Yes
X_Columns	One
Time_Pref	Relative
Operator	e014
Description	Hysteresis Loop Data
Date	2015/07/23
Time	13:52:07.906879425048828125
***End_of_Header***	
	
Channels	2		
Samples	2500	2500	
Date	2015/07/23	2015/07/23	
Time	13:52:07.906879425048828125	13:52:07.906879425048828125	
X_Dimension	Time	Time	
X0	-2.5000000000000001E-3	-2.5000000000000001E-3	
Delta_X	2.000000E-6	2.000000E-6	
***End_of_Header***			
X_Value	Untitled	Untitled 1	Comment
-0.002500	0.400000	-4.600000
-0.002498	1.200000	-4.200000
-0.002496	2.000000	-3.800000
-0.002494	3.200000	-3.400000
-0.002492	4.400000	-3.000000
-0.002490	4.800000	-2.600000
-0.002488	6.000000	-2.200000
-0.002486	6.800000	-1.800000
-0.002484	7.600000	-1.400000
-0.002482	8.800000	-1.000000
-0.002480	9.600000	-0.600000
-0.002478	10.800000	-0.200000
-0.002476	11.600000	0.200000
-0.002474	12.400000	0.600000
-0.002472	12.800000	1.000000
-0.002470	13.600000	1.600000
-0.002468	14.400000	2.000000
-0.002466	15.600000	2.400000
-0.002464	16.000000	2.800000
-0.002462	16.800000	3.200000
-0.002460	18.000000	3.600000
-0.002458	18.800000	4.000000
-0.002456	19.600000	4.400000
-0.002454	20.400000	4.800000
-0.002452	21.600000	5.200000
-0.002450	22.800000	5.600000
-0.002448	23.600000	6.000000
-0.002446	24.800000	6.400000
-0.002444	25.600000	6.800000
-0.002442	26.000000	7.200000
-0.002440	27.200000	7.400000
-0.002438	28.000000	7.800000
-0.002436	28.400000	8.000000
-0.002434	28.000000	8.200000
-0.002432	26.000000	8.200000
-0.002430	26.000000	8.400000
-0.002428	24.000000	8.200000
-0.002426	24.000000	8.400000
-0.002424	22.400000	8.400000
-0.002422	22.000000	8.400000
-0.002420	20.800000	8.400000
-0.002418	20.000000	8.200000
-0.002416	18.800000	8.200000
-0.002414	17.600000	8.200000
-0.002412	17.200000	8.200000
-0.002410	16.000000	8.000000
-0.002408	15.600000	8.000000
-0.002406	14.000000	7.800000
-0.002404	13.600000	7.800000
-0.002402	12.000000	7.600000
-0.002400	11.600000	7.400000
-0.002398	10.400000	7.200000
-0.002396	9.600000	7.000000
-0.002394	8.400000	6.800000
-0.002392	7.600000	6.600000
-0.002390	6.800000	6.400000
-0.002388	5.600000	6.000000
-0.002386	4.800000	5.800000
-0.002384	4.000000	5.400000
-0.002382	2.800000	5.200000
-0.002380	2.000000	5.000000
-0.002378	1.200000	4.600000
-0.002376	0.400000	4.400000
-0.002374	-0.400000	4.000000
-0.002372	-1.600000	3.600000
-0.002370	-2.400000	3.200000
-0.002368	-2.800000	3.000000
-0.002366	-3.600000	2.600000
-0.002364	-4.400000	2.200000
-0.002362	-4.800000	2.000000
-0.002360	-5.600000	1.600000
-0.002358	-6.000000	1.200000
-0.002356	-6.400000	0.800000
-0.002354	-6.800000	0.400000
-0.002352	-7.600000	0.000000
-0.002350	-8.000000	-0.200000
-0.002348	-8.400000	-0.600000
-0.002346	-9.200000	-1.000000
-0.002344	-9.600000	-1.400000
-0.002342	-10.400000	-1.800000
-0.002340	-10.800000	-2.200000
-0.002338	-11.200000	-2.600000
-0.002336	-11.600000	-3.000000
-0.002334	-12.000000	-3.400000
-0.002332	-12.400000	-3.600000
-0.002330	-13.200000	-4.000000
-0.002328	-13.600000	-4.400000
-0.002326	-14.000000	-4.800000
-0.002324	-14.400000	-5.200000
-0.002322	-15.600000	-5.600000
-0.002320	-16.000000	-5.800000
-0.002318	-16.800000	-6.200000
-0.002316	-17.600000	-6.600000
-0.002314	-18.800000	-7.000000
-0.002312	-20.000000	-7.200000
-0.002310	-21.200000	-7.600000
-0.002308	-22.000000	-8.000000
-0.002306	-23.200000	-8.400000
-0.002304	-24.400000	-8.800000
-0.002302	-24.800000	-9.000000
-0.002300	-22.800000	-8.800000
-0.002298	-22.800000	-9.000000
-0.002296	-21.200000	-8.800000
-0.002294	-20.400000	-8.800000
-0.002292	-19.600000	-9.000000
-0.002290	-18.400000	-8.800000
-0.002288	-18.000000	-8.800000
-0.002286	-16.400000	-8.600000
-0.002284	-16.000000	-8.600000
-0.002282	-14.400000	-8.400000
-0.002280	-14.000000	-8.200000
-0.002278	-12.400000	-8.000000
-0.002276	-12.000000	-8.000000
-0.002274	-10.800000	-7.600000
-0.002272	-10.000000	-7.400000
-0.002270	-8.800000	-7.200000
-0.002268	-8.000000	-7.000000
-0.002266	-7.200000	-6.800000
-0.002264	-6.000000	-6.600000
-0.002262	-5.200000	-6.400000
-0.002260	-4.400000	-6.000000
-0.002258	-3.200000	-5.800000
-0.002256	-2.000000	-5.400000
-0.002254	-1.200000	-5.000000
-0.002252	0.000000	-4.800000
-0.002250	0.400000	-4.400000
-0.002248	1.600000	-4.000000
-0.002246	2.400000	-3.600000
-0.002244	3.600000	-3.200000
-0.002242	4.400000	-2.800000
-0.002240	5.200000	-2.600000
-0.002238	6.400000	-2.200000
-0.002236	7.200000	-1.800000
-0.002234	8.000000	-1.400000
-0.002232	8.800000	-1.000000
-0.002230	10.000000	-0.400000
-0.002228	10.800000	0.000000
-0.002226	11.600000	0.400000
-0.002224	12.400000	0.800000
-0.002222	13.200000	1.200000
-0.002220	14.000000	1.600000
-0.002218	14.800000	2.000000
-0.002216	15.600000	2.400000
-0.002214	16.400000	2.800000
-0.002212	17.200000	3.200000
-0.002210	18.000000	3.600000
-0.002208	19.200000	4.200000
-0.002206	20.000000	4.600000
-0.002204	20.800000	5.000000
-0.002202	22.000000	5.400000
-0.002200	22.800000	5.600000
-0.002198	24.000000	6.200000
-0.002196	24.800000	6.600000
-0.002194	25.600000	7.000000
-0.002192	26.400000	7.200000
-0.002190	27.200000	7.600000
-0.002188	28.000000	7.800000
-0.002186	28.400000	8.200000
-0.002184	27.200000	8.200000
-0.002182	26.000000	8.200000
-0.002180	25.600000	8.400000
-0.002178	24.000000	8.200000
-0.002176	24.000000	8.400000
-0.002174	22.000000	8.400000
-0.002172	22.000000	8.400000
-0.002170	20.000000	8.200000
-0.002168	20.000000	8.200000
-0.002166	18.400000	8.200000
-0.002164	17.600000	8.200000
-0.002162	16.800000	8.200000
-0.002160	16.000000	8.000000
-0.002158	15.200000	8.000000
-0.002156	13.600000	7.800000
-0.002154	13.200000	7.600000
-0.002152	12.000000	7.400000
-0.002150	11.200000	7.400000
-0.002148	10.000000	7.200000
-0.002146	9.600000	7.000000
-0.002144	8.000000	6.800000
-0.002142	7.600000	6.600000
-0.002140	6.400000	6.200000
-0.002138	5.600000	6.000000
-0.002136	4.400000	5.600000
-0.002134	3.600000	5.400000
-0.002132	2.800000	5.200000
-0.002130	1.600000	4.800000
-0.002128	0.800000	4.600000
-0.002126	0.000000	4.200000
-0.002124	-0.800000	3.800000
-0.002122	-1.600000	3.400000
-0.002120	-2.400000	3.200000
-0.002118	-3.200000	2.800000
-0.002116	-4.000000	2.600000
-0.002114	-4.400000	2.200000
-0.002112	-5.200000	1.800000
-0.002110	-5.600000	1.400000
-0.002108	-6.000000	1.000000
-0.002106	-6.400000	0.600000
-0.002104	-7.200000	0.400000
-0.002102	-7.600000	0.000000
-0.002100	-8.400000	-0.400000
-0.002098	-8.800000	-0.800000
-0.002096	-9.200000	-1.200000
-0.002094	-10.000000	-1.600000
-0.002092	-10.400000	-2.000000
-0.002090	-10.800000	-2.400000
-0.002088	-11.200000	-2.600000
-0.002086	-11.600000	-3.000000
-0.002084	-12.400000	-3.400000
-0.002082	-12.800000	-3.800000
-0.002080	-13.200000	-4.200000
-0.002078	-13.600000	-4.600000
-0.002076	-14.000000	-4.800000
-0.002074	-14.800000	-5.200000
-0.002072	-15.600000	-5.600000
-0.002070	-16.400000	-6.000000
-0.002068	-17.200000	-6.400000
-0.002066	-18.000000	-6.800000
-0.002064	-19.200000	-7.000000
-0.002062	-20.400000	-7.400000
-0.002060	-21.600000	-7.800000
-0.002058	-22.400000	-8.200000
-0.002056	-23.600000	-8.600000
-0.002054	-24.800000	-8.800000
-0.002052	-24.400000	-9.000000
-0.002050	-22.400000	-8.800000
-0.002048	-22.400000	-9.000000
-0.002046	-20.400000	-8.800000
-0.002044	-20.400000	-9.000000
-0.002042	-18.800000	-8.800000
-0.002040	-18.400000	-8.800000
-0.002038	-17.200000	-8.800000
-0.002036	-16.000000	-8.600000
-0.002034	-15.600000	-8.600000
-0.002032	-14.000000	-8.200000
-0.002030	-13.600000	-8.200000
-0.002028	-12.000000	-8.000000
-0.002026	-11.600000	-7.800000
-0.002024	-10.400000	-7.600000
-0.002022	-10.000000	-7.400000
-0.002020	-8.400000	-7.200000
-0.002018	-8.000000	-7.000000
-0.002016	-6.400000	-6.800000
-0.002014	-6.000000	-6.600000
-0.002012	-4.800000	-6.200000
-0.002010	-4.000000	-6.000000
-0.002008	-2.800000	-5.600000
-0.002006	-2.000000	-5.400000
-0.002004	-0.800000	-5.000000
-0.002002	0.000000	-4.600000
-0.002000	0.800000	-4.200000
-0.001998	2.000000	-4.000000
-0.001996	2.800000	-3.600000
-0.001994	4.000000	-3.200000
-0.001992	4.800000	-2.800000
-0.001990	5.600000	-2.400000
-0.001988	6.400000	-2.000000
-0.001986	7.200000	-1.600000
-0.001984	8.400000	-1.200000
-0.001982	9.200000	-0.800000
-0.001980	10.400000	-0.200000
-0.001978	11.200000	0.200000
-0.001976	12.000000	0.600000
-0.001974	12.800000	1.000000
-0.001972	13.200000	1.400000
-0.001970	14.400000	1.800000
-0.001968	15.200000	2.200000
-0.001966	16.000000	2.600000
-0.001964	16.800000	3.000000
-0.001962	17.600000	3.400000
-0.001960	18.400000	3.800000
-0.001958	19.200000	4.200000
-0.001956	20.000000	4.600000
-0.001954	21.200000	5.000000
-0.001952	22.400000	5.400000
-0.001950	23.200000	5.800000
-0.001948	24.400000	6.200000
-0.001946	25.200000	6.600000
-0.001944	26.000000	7.000000
-0.001942	26.800000	7.400000
-0.001940	27.600000	7.600000
-0.001938	28.000000	8.000000
-0.001936	28.400000	8.200000
-0.001934	26.400000	8.200000
-0.001932	26.000000	8.400000
-0.001930	24.800000	8.400000
-0.001928	24.000000	8.400000
-0.001926	23.200000	8.400000
-0.001924	22.000000	8.400000
-0.001922	21.600000	8.400000
-0.001920	20.000000	8.200000
-0.001918	19.600000	8.200000
-0.001916	18.000000	8.200000
-0.001914	17.600000	8.200000
-0.001912	16.400000	8.000000
-0.001910	16.000000	8.000000
-0.001908	14.400000	7.800000
-0.001906	13.600000	7.800000
-0.001904	12.800000	7.600000
-0.001902	11.600000	7.400000
-0.001900	10.800000	7.200000
-0.001898	10.000000	7.000000
-0.001896	8.800000	6.800000
-0.001894	8.000000	6.600000
-0.001892	7.200000	6.400000
-0.001890	6.000000	6.200000
-0.001888	5.200000	5.800000
-0.001886	4.000000	5.600000
-0.001884	3.200000	5.200000
-0.001882	2.400000	5.000000
-0.001880	1.200000	4.800000
-0.001878	0.800000	4.400000
-0.001876	-0.400000	4.000000
-0.001874	-1.200000	3.800000
-0.001872	-2.000000	3.400000
-0.001870	-2.800000	3.000000
-0.001868	-3.600000	2.800000
-0.001866	-4.000000	2.400000
-0.001864	-4.800000	2.000000
-0.001862	-5.200000	1.600000
-0.001860	-6.000000	1.200000
-0.001858	-6.000000	1.000000
-0.001856	-6.800000	0.600000
-0.001854	-7.200000	0.200000
-0.001852	-8.000000	-0.200000
-0.001850	-8.400000	-0.600000
-0.001848	-8.800000	-1.000000
-0.001846	-9.600000	-1.400000
-0.001844	-10.000000	-1.800000
-0.001842	-10.800000	-2.000000
-0.001840	-11.200000	-2.400000
-0.001838	-11.200000	-2.800000
-0.001836	-12.000000	-3.200000
-0.001834	-12.400000	-3.600000
-0.001832	-12.800000	-4.000000
-0.001830	-13.200000	-4.200000
-0.001828	-13.600000	-4.600000
-0.001826	-14.400000	-5.000000
-0.001824	-14.800000	-5.400000
-0.001822	-16.000000	-5.800000
-0.001820	-16.800000	-6.200000
-0.001818	-17.600000	-6.400000
-0.001816	-18.400000	-6.800000
-0.001814	-19.600000	-7.200000
-0.001812	-20.800000	-7.600000
-0.001810	-21.600000	-8.000000
-0.001808	-22.800000	-8.200000
-0.001806	-24.000000	-8.600000
-0.001804	-24.800000	-9.000000
-0.001802	-23.600000	-9.000000
-0.001800	-22.400000	-9.000000
-0.001798	-22.000000	-9.000000
-0.001796	-20.400000	-8.800000
-0.001794	-20.000000	-9.000000
-0.001792	-18.400000	-8.800000
-0.001790	-18.400000	-8.800000
-0.001788	-16.800000	-8.600000
-0.001786	-16.400000	-8.600000
-0.001784	-14.800000	-8.400000
-0.001782	-14.000000	-8.200000
-0.001780	-13.200000	-8.200000
-0.001778	-12.000000	-8.000000
-0.001776	-11.600000	-7.800000
-0.001774	-10.400000	-7.400000
-0.001772	-9.600000	-7.400000
-0.001770	-8.000000	-7.200000
-0.001768	-7.600000	-7.000000
-0.001766	-6.400000	-6.600000
-0.001764	-5.600000	-6.400000
-0.001762	-4.400000	-6.200000
-0.001760	-4.000000	-5.800000
-0.001758	-2.400000	-5.600000
-0.001756	-1.600000	-5.200000
-0.001754	-0.400000	-4.800000
-0.001752	0.000000	-4.600000
-0.001750	1.200000	-4.200000
-0.001748	2.000000	-3.800000
-0.001746	3.200000	-3.400000
-0.001744	4.000000	-3.000000
-0.001742	4.800000	-2.600000
-0.001740	6.000000	-2.200000
-0.001738	6.800000	-1.800000
-0.001736	7.600000	-1.600000
-0.001734	8.400000	-1.000000
-0.001732	9.600000	-0.600000
-0.001730	10.400000	-0.200000
-0.001728	11.200000	0.200000
-0.001726	12.000000	0.600000
-0.001724	12.800000	1.000000
-0.001722	13.600000	1.400000
-0.001720	14.400000	2.000000
-0.001718	15.600000	2.400000
-0.001716	16.000000	2.800000
-0.001714	16.800000	3.000000
-0.001712	18.000000	3.600000
-0.001710	18.800000	4.000000
-0.001708	19.600000	4.400000
-0.001706	20.400000	4.800000
-0.001704	21.600000	5.200000
-0.001702	22.400000	5.600000
-0.001700	23.600000	6.000000
-0.001698	24.400000	6.400000
-0.001696	25.200000	6.800000
-0.001694	26.400000	7.200000
-0.001692	27.200000	7.400000
-0.001690	28.000000	7.800000
-0.001688	28.400000	8.000000
-0.001686	28.000000	8.200000
-0.001684	26.000000	8.200000
-0.001682	26.000000	8.400000
-0.001680	24.400000	8.200000
-0.001678	24.000000	8.400000
-0.001676	22.400000	8.400000
-0.001674	22.000000	8.400000
-0.001672	20.800000	8.400000
-0.001670	20.000000	8.200000
-0.001668	19.200000	8.200000
-0.001666	18.000000	8.200000
-0.001664	17.600000	8.200000
-0.001662	16.000000	8.000000
-0.001660	15.600000	8.000000
-0.001658	14.000000	7.800000
-0.001656	13.600000	7.800000
-0.001654	12.400000	7.600000
-0.001652	11.600000	7.400000
-0.001650	10.400000	7.200000
-0.001648	9.600000	7.000000
-0.001646	8.800000	6.800000
-0.001644	7.600000	6.600000
-0.001642	6.800000	6.400000
-0.001640	5.600000	6.000000
-0.001638	4.800000	5.800000
-0.001636	4.000000	5.400000
-0.001634	3.200000	5.200000
-0.001632	2.000000	5.000000
-0.001630	1.200000	4.600000
-0.001628	0.400000	4.400000
-0.001626	-0.400000	4.000000
-0.001624	-1.600000	3.600000
-0.001622	-2.400000	3.400000
-0.001620	-2.800000	3.000000
-0.001618	-3.600000	2.600000
-0.001616	-4.400000	2.400000
-0.001614	-4.800000	2.000000
-0.001612	-5.600000	1.600000
-0.001610	-6.000000	1.200000
-0.001608	-6.400000	0.800000
-0.001606	-6.800000	0.400000
-0.001604	-7.600000	0.200000
-0.001602	-8.000000	-0.200000
-0.001600	-8.400000	-0.600000
-0.001598	-9.200000	-1.000000
-0.001596	-9.600000	-1.400000
-0.001594	-10.400000	-1.800000
-0.001592	-10.800000	-2.200000
-0.001590	-11.200000	-2.600000
-0.001588	-11.600000	-3.000000
-0.001586	-12.000000	-3.400000
-0.001584	-12.800000	-3.600000
-0.001582	-13.200000	-4.000000
-0.001580	-13.600000	-4.400000
-0.001578	-14.000000	-4.800000
-0.001576	-14.400000	-5.200000
-0.001574	-15.200000	-5.600000
-0.001572	-16.000000	-5.800000
-0.001570	-16.800000	-6.200000
-0.001568	-17.600000	-6.600000
-0.001566	-18.800000	-7.000000
-0.001564	-19.600000	-7.200000
-0.001562	-20.800000	-7.600000
-0.001560	-22.000000	-8.000000
-0.001558	-23.200000	-8.400000
-0.001556	-24.400000	-8.800000
-0.001554	-24.800000	-9.000000
-0.001552	-23.200000	-9.000000
-0.001550	-22.800000	-9.000000
-0.001548	-21.200000	-9.000000
-0.001546	-20.400000	-8.800000
-0.001544	-19.600000	-9.000000
-0.001542	-18.400000	-8.800000
-0.001540	-18.000000	-8.800000
-0.001538	-16.400000	-8.600000
-0.001536	-16.000000	-8.600000
-0.001534	-14.400000	-8.400000
-0.001532	-14.000000	-8.200000
-0.001530	-12.800000	-8.000000
-0.001528	-12.000000	-8.000000
-0.001526	-10.800000	-7.600000
-0.001524	-10.000000	-7.400000
-0.001522	-8.800000	-7.200000
-0.001520	-8.000000	-7.000000
-0.001518	-7.200000	-6.800000
-0.001516	-6.400000	-6.600000
-0.001514	-5.200000	-6.400000
-0.001512	-4.400000	-6.000000
-0.001510	-3.200000	-5.800000
-0.001508	-2.000000	-5.400000
-0.001506	-1.200000	-5.000000
-0.001504	-0.400000	-4.800000
-0.001502	0.400000	-4.400000
-0.001500	1.600000	-4.000000
-0.001498	2.400000	-3.600000
-0.001496	3.200000	-3.200000
-0.001494	4.400000	-2.800000
-0.001492	5.200000	-2.600000
-0.001490	6.400000	-2.200000
-0.001488	7.200000	-1.800000
-0.001486	8.000000	-1.400000
-0.001484	8.800000	-1.000000
-0.001482	10.000000	-0.400000
-0.001480	10.800000	0.000000
-0.001478	11.600000	0.400000
-0.001476	12.400000	0.800000
-0.001474	13.200000	1.200000
-0.001472	14.000000	1.600000
-0.001470	14.800000	2.000000
-0.001468	15.600000	2.400000
-0.001466	16.400000	2.800000
-0.001464	17.200000	3.200000
-0.001462	18.000000	3.600000
-0.001460	18.800000	4.000000
-0.001458	20.000000	4.600000
-0.001456	20.800000	5.000000
-0.001454	22.000000	5.200000
-0.001452	22.800000	5.600000
-0.001450	24.000000	6.000000
-0.001448	24.800000	6.600000
-0.001446	25.600000	6.800000
-0.001444	26.400000	7.200000
-0.001442	27.200000	7.600000
-0.001440	28.000000	7.800000
-0.001438	28.400000	8.200000
-0.001436	27.600000	8.200000
-0.001434	26.000000	8.200000
-0.001432	25.600000	8.400000
-0.001430	24.000000	8.200000
-0.001428	24.000000	8.400000
-0.001426	22.000000	8.400000
-0.001424	22.000000	8.400000
-0.001422	20.400000	8.200000
-0.001420	20.000000	8.200000
-0.001418	18.400000	8.200000
-0.001416	17.600000	8.200000
-0.001414	16.800000	8.200000
-0.001412	16.000000	8.000000
-0.001410	15.200000	8.000000
-0.001408	13.600000	7.800000
-0.001406	13.200000	7.800000
-0.001404	12.000000	7.600000
-0.001402	11.200000	7.400000
-0.001400	10.000000	7.200000
-0.001398	9.200000	7.000000
-0.001396	8.400000	6.800000
-0.001394	7.600000	6.600000
-0.001392	6.400000	6.200000
-0.001390	5.600000	6.000000
-0.001388	4.400000	5.600000
-0.001386	3.600000	5.400000
-0.001384	2.800000	5.200000
-0.001382	1.600000	4.800000
-0.001380	0.800000	4.600000
-0.001378	0.000000	4.200000
-0.001376	-0.800000	3.800000
-0.001374	-1.600000	3.600000
-0.001372	-2.400000	3.200000
-0.001370	-3.200000	2.800000
-0.001368	-3.600000	2.600000
-0.001366	-4.400000	2.200000
-0.001364	-5.200000	1.800000
-0.001362	-5.600000	1.400000
-0.001360	-6.000000	1.000000
-0.001358	-6.400000	0.800000
-0.001356	-7.200000	0.400000
-0.001354	-7.600000	0.000000
-0.001352	-8.400000	-0.400000
-0.001350	-8.800000	-0.800000
-0.001348	-9.200000	-1.200000
-0.001346	-10.000000	-1.600000
-0.001344	-10.400000	-2.000000
-0.001342	-10.800000	-2.400000
-0.001340	-11.200000	-2.600000
-0.001338	-11.600000	-3.000000
-0.001336	-12.000000	-3.400000
-0.001334	-12.800000	-3.800000
-0.001332	-13.200000	-4.200000
-0.001330	-13.600000	-4.600000
-0.001328	-14.000000	-4.800000
-0.001326	-14.800000	-5.200000
-0.001324	-15.600000	-5.600000
-0.001322	-16.400000	-6.000000
-0.001320	-17.200000	-6.400000
-0.001318	-18.000000	-6.800000
-0.001316	-19.200000	-7.000000
-0.001314	-20.000000	-7.400000
-0.001312	-21.200000	-7.800000
-0.001310	-22.400000	-8.200000
-0.001308	-23.600000	-8.400000
-0.001306	-24.800000	-8.800000
-0.001304	-24.400000	-9.000000
-0.001302	-22.400000	-8.800000
-0.001300	-22.400000	-9.000000
-0.001298	-20.400000	-8.800000
-0.001296	-20.400000	-9.000000
-0.001294	-19.200000	-8.800000
-0.001292	-18.400000	-8.800000
-0.001290	-17.600000	-8.800000
-0.001288	-16.000000	-8.600000
-0.001286	-15.600000	-8.600000
-0.001284	-14.000000	-8.400000
-0.001282	-14.000000	-8.200000
-0.001280	-12.000000	-8.000000
-0.001278	-12.000000	-7.800000
-0.001276	-10.400000	-7.600000
-0.001274	-10.000000	-7.400000
-0.001272	-8.400000	-7.200000
-0.001270	-8.000000	-7.000000
-0.001268	-6.800000	-6.800000
-0.001266	-6.000000	-6.600000
-0.001264	-4.800000	-6.200000
-0.001262	-4.000000	-6.000000
-0.001260	-2.800000	-5.600000
-0.001258	-2.000000	-5.400000
-0.001256	-0.800000	-5.000000
-0.001254	0.000000	-4.600000
-0.001252	0.800000	-4.400000
-0.001250	1.600000	-4.000000
-0.001248	2.400000	-3.600000
-0.001246	4.000000	-3.200000
-0.001244	4.800000	-2.800000
-0.001242	5.600000	-2.400000
-0.001240	6.400000	-2.000000
-0.001238	7.200000	-1.600000
-0.001236	8.000000	-1.200000
-0.001234	9.200000	-0.800000
-0.001232	10.400000	-0.400000
-0.001230	11.200000	0.000000
-0.001228	12.000000	0.600000
-0.001226	12.400000	1.000000
-0.001224	13.200000	1.200000
-0.001222	14.000000	1.800000
-0.001220	15.200000	2.200000
-0.001218	15.600000	2.600000
-0.001216	16.400000	3.000000
-0.001214	17.600000	3.400000
-0.001212	18.400000	3.800000
-0.001210	19.200000	4.200000
-0.001208	20.000000	4.600000
-0.001206	21.200000	5.000000
-0.001204	22.000000	5.400000
-0.001202	23.200000	5.800000
-0.001200	24.400000	6.200000
-0.001198	25.200000	6.600000
-0.001196	26.000000	7.000000
-0.001194	26.800000	7.400000
-0.001192	27.600000	7.600000
-0.001190	28.400000	8.000000
-0.001188	28.400000	8.200000
-0.001186	26.800000	8.200000
-0.001184	26.000000	8.400000
-0.001182	24.800000	8.400000
-0.001180	24.000000	8.400000
-0.001178	23.200000	8.400000
-0.001176	22.000000	8.400000
-0.001174	21.600000	8.400000
-0.001172	20.000000	8.200000
-0.001170	19.600000	8.400000
-0.001168	18.000000	8.200000
-0.001166	18.000000	8.200000
-0.001164	16.400000	8.000000
-0.001162	16.000000	8.000000
-0.001160	14.400000	7.800000
-0.001158	13.600000	7.800000
-0.001156	12.800000	7.600000
-0.001154	11.600000	7.400000
-0.001152	10.800000	7.200000
-0.001150	10.000000	7.000000
-0.001148	8.800000	6.800000
-0.001146	8.000000	6.600000
-0.001144	7.200000	6.400000
-0.001142	6.000000	6.200000
-0.001140	5.200000	5.800000
-0.001138	4.400000	5.600000
-0.001136	3.600000	5.400000
-0.001134	2.400000	5.000000
-0.001132	1.600000	4.800000
-0.001130	0.800000	4.400000
-0.001128	-0.400000	4.200000
-0.001126	-1.200000	3.800000
-0.001124	-2.000000	3.400000
-0.001122	-2.800000	3.200000
-0.001120	-3.600000	2.800000
-0.001118	-4.000000	2.400000
-0.001116	-4.800000	2.000000
-0.001114	-5.200000	1.800000
-0.001112	-6.000000	1.400000
-0.001110	-6.000000	1.000000
-0.001108	-6.800000	0.600000
-0.001106	-7.200000	0.200000
-0.001104	-8.000000	-0.200000
-0.001102	-8.400000	-0.400000
-0.001100	-8.800000	-1.000000
-0.001098	-9.600000	-1.400000
-0.001096	-10.000000	-1.600000
-0.001094	-10.400000	-2.000000
-0.001092	-10.800000	-2.400000
-0.001090	-11.200000	-2.800000
-0.001088	-12.000000	-3.200000
-0.001086	-12.400000	-3.600000
-0.001084	-12.800000	-4.000000
-0.001082	-13.200000	-4.200000
-0.001080	-13.600000	-4.600000
-0.001078	-14.400000	-5.000000
-0.001076	-14.800000	-5.400000
-0.001074	-16.000000	-5.800000
-0.001072	-16.400000	-6.200000
-0.001070	-17.600000	-6.400000
-0.001068	-18.400000	-6.800000
-0.001066	-19.200000	-7.000000
-0.001064	-20.400000	-7.600000
-0.001062	-21.600000	-7.800000
-0.001060	-22.800000	-8.200000
-0.001058	-24.000000	-8.600000
-0.001056	-24.800000	-8.800000
-0.001054	-23.600000	-9.000000
-0.001052	-22.400000	-9.000000
-0.001050	-22.000000	-9.000000
-0.001048	-20.400000	-8.800000
-0.001046	-20.400000	-9.000000
-0.001044	-18.400000	-8.800000
-0.001042	-18.400000	-8.800000
-0.001040	-16.800000	-8.600000
-0.001038	-16.400000	-8.600000
-0.001036	-14.800000	-8.400000
-0.001034	-14.000000	-8.200000
-0.001032	-13.200000	-8.200000
-0.001030	-12.000000	-8.000000
-0.001028	-11.600000	-7.800000
-0.001026	-10.400000	-7.600000
-0.001024	-9.600000	-7.400000
-0.001022	-8.000000	-7.200000
-0.001020	-7.600000	-7.000000
-0.001018	-6.400000	-6.600000
-0.001016	-6.000000	-6.400000
-0.001014	-4.400000	-6.200000
-0.001012	-4.000000	-5.800000
-0.001010	-2.400000	-5.600000
-0.001008	-1.600000	-5.200000
-0.001006	-0.400000	-4.800000
-0.001004	0.000000	-4.600000
-0.001002	1.200000	-4.200000
-0.001000	2.000000	-3.800000
-0.000998	2.800000	-3.400000
-0.000996	4.000000	-3.000000
-0.000994	4.800000	-2.800000
-0.000992	6.000000	-2.400000
-0.000990	6.800000	-2.000000
-0.000988	7.600000	-1.600000
-0.000986	8.400000	-1.200000
-0.000984	9.600000	-0.600000
-0.000982	10.400000	-0.200000
-0.000980	11.200000	0.200000
-0.000978	12.000000	0.600000
-0.000976	12.800000	1.000000
-0.000974	13.600000	1.400000
-0.000972	14.400000	1.800000
-0.000970	15.200000	2.200000
-0.000968	16.000000	2.800000
-0.000966	16.800000	3.000000
-0.000964	17.600000	3.400000
-0.000962	18.400000	4.000000
-0.000960	19.600000	4.400000
-0.000958	20.400000	4.800000
-0.000956	21.600000	5.200000
-0.000954	22.400000	5.600000
-0.000952	23.600000	6.000000
-0.000950	24.400000	6.400000
-0.000948	25.200000	6.800000
-0.000946	26.000000	7.200000
-0.000944	26.800000	7.400000
-0.000942	27.600000	7.800000
-0.000940	28.400000	8.000000
-0.000938	28.000000	8.200000
-0.000936	26.000000	8.200000
-0.000934	26.000000	8.400000
-0.000932	24.400000	8.200000
-0.000930	24.000000	8.400000
-0.000928	22.800000	8.400000
-0.000926	22.000000	8.400000
-0.000924	21.200000	8.400000
-0.000922	20.000000	8.200000
-0.000920	19.200000	8.200000
-0.000918	17.600000	8.200000
-0.000916	17.600000	8.200000
-0.000914	16.000000	8.000000
-0.000912	15.600000	8.000000
-0.000910	14.000000	7.800000
-0.000908	13.600000	7.800000
-0.000906	12.400000	7.600000
-0.000904	11.600000	7.400000
-0.000902	10.400000	7.200000
-0.000900	9.600000	7.000000
-0.000898	8.800000	6.800000
-0.000896	7.600000	6.600000
-0.000894	6.800000	6.400000
-0.000892	6.000000	6.000000
-0.000890	5.200000	5.800000
-0.000888	4.000000	5.400000
-0.000886	3.200000	5.200000
-0.000884	2.000000	5.000000
-0.000882	1.200000	4.600000
-0.000880	0.400000	4.400000
-0.000878	-0.400000	4.000000
-0.000876	-1.600000	3.600000
-0.000874	-2.000000	3.400000
-0.000872	-2.800000	3.000000
-0.000870	-3.600000	2.600000
-0.000868	-4.400000	2.400000
-0.000866	-4.800000	2.000000
-0.000864	-5.600000	1.600000
-0.000862	-6.000000	1.200000
-0.000860	-6.400000	0.800000
-0.000858	-6.800000	0.600000
-0.000856	-7.600000	0.200000
-0.000854	-8.000000	-0.200000
-0.000852	-8.400000	-0.600000
-0.000850	-8.800000	-1.000000
-0.000848	-9.600000	-1.400000
-0.000846	-10.400000	-1.800000
-0.000844	-10.800000	-2.200000
-0.000842	-11.200000	-2.600000
-0.000840	-11.600000	-3.000000
-0.000838	-12.000000	-3.200000
-0.000836	-12.400000	-3.600000
-0.000834	-13.200000	-4.000000
-0.000832	-13.600000	-4.400000
-0.000830	-14.000000	-4.800000
-0.000828	-14.400000	-5.000000
-0.000826	-15.200000	-5.400000
-0.000824	-16.000000	-5.800000
-0.000822	-16.800000	-6.200000
-0.000820	-17.600000	-6.600000
-0.000818	-18.800000	-7.000000
-0.000816	-19.600000	-7.200000
-0.000814	-20.800000	-7.600000
-0.000812	-22.000000	-8.000000
-0.000810	-23.200000	-8.400000
-0.000808	-24.400000	-8.600000
-0.000806	-24.800000	-9.000000
-0.000804	-23.200000	-9.000000
-0.000802	-22.800000	-9.000000
-0.000800	-21.600000	-9.000000
-0.000798	-20.400000	-8.800000
-0.000796	-19.600000	-9.000000
-0.000794	-18.400000	-8.800000
-0.000792	-18.000000	-8.800000
-0.000790	-16.400000	-8.600000
-0.000788	-16.000000	-8.600000
-0.000786	-14.400000	-8.400000
-0.000784	-14.000000	-8.200000
-0.000782	-12.800000	-8.000000
-0.000780	-12.000000	-8.000000
-0.000778	-10.800000	-7.800000
-0.000776	-10.000000	-7.400000
-0.000774	-9.200000	-7.200000
-0.000772	-8.000000	-7.000000
-0.000770	-7.200000	-6.800000
-0.000768	-6.400000	-6.600000
-0.000766	-5.200000	-6.400000
-0.000764	-4.400000	-6.000000
-0.000762	-3.600000	-5.800000
-0.000760	-2.400000	-5.400000
-0.000758	-1.600000	-5.200000
-0.000756	-0.400000	-4.800000
-0.000754	0.400000	-4.400000
-0.000752	1.200000	-4.000000
-0.000750	2.000000	-3.800000
-0.000748	3.200000	-3.400000
-0.000746	4.400000	-3.000000
-0.000744	5.200000	-2.600000
-0.000742	6.400000	-2.200000
-0.000740	7.200000	-1.800000
-0.000738	8.000000	-1.400000
-0.000736	8.800000	-1.000000
-0.000734	10.000000	-0.400000
-0.000732	10.800000	0.000000
-0.000730	11.600000	0.400000
-0.000728	12.400000	0.800000
-0.000726	13.200000	1.200000
-0.000724	14.000000	1.600000
-0.000722	14.800000	2.000000
-0.000720	15.600000	2.400000
-0.000718	16.400000	2.800000
-0.000716	17.200000	3.200000
-0.000714	18.000000	3.600000
-0.000712	18.800000	4.000000
-0.000710	20.000000	4.400000
-0.000708	20.800000	4.800000
-0.000706	22.000000	5.200000
-0.000704	22.800000	5.600000
-0.000702	24.000000	6.000000
-0.000700	24.800000	6.400000
-0.000698	25.600000	6.800000
-0.000696	26.400000	7.200000
-0.000694	27.200000	7.600000
-0.000692	28.000000	7.800000
-0.000690	28.400000	8.200000
-0.000688	27.600000	8.200000
-0.000686	26.000000	8.200000
-0.000684	25.600000	8.400000
-0.000682	24.000000	8.200000
-0.000680	24.000000	8.400000
-0.000678	22.400000	8.400000
-0.000676	22.000000	8.400000
-0.000674	20.400000	8.400000
-0.000672	20.000000	8.200000
-0.000670	18.800000	8.200000
-0.000668	17.600000	8.200000
-0.000666	17.200000	8.200000
-0.000664	16.000000	8.000000
-0.000662	15.200000	8.000000
-0.000660	13.600000	7.800000
-0.000658	13.200000	7.800000
-0.000656	12.000000	7.600000
-0.000654	11.600000	7.400000
-0.000652	10.000000	7.200000
-0.000650	9.600000	7.000000
-0.000648	8.400000	6.800000
-0.000646	7.600000	6.600000
-0.000644	6.400000	6.200000
-0.000642	5.600000	6.000000
-0.000640	4.800000	5.600000
-0.000638	3.600000	5.400000
-0.000636	2.800000	5.200000
-0.000634	2.000000	4.800000
-0.000632	1.200000	4.600000
-0.000630	0.000000	4.200000
-0.000628	-0.800000	3.800000
-0.000626	-1.600000	3.600000
-0.000624	-2.400000	3.200000
-0.000622	-3.200000	3.000000
-0.000620	-3.600000	2.600000
-0.000618	-4.400000	2.200000
-0.000616	-5.200000	1.800000
-0.000614	-5.600000	1.400000
-0.000612	-6.000000	1.200000
-0.000610	-6.400000	0.800000
-0.000608	-7.200000	0.400000
-0.000606	-7.600000	0.000000
-0.000604	-8.400000	-0.400000
-0.000602	-8.800000	-0.800000
-0.000600	-9.200000	-1.200000
-0.000598	-10.000000	-1.600000
-0.000596	-10.400000	-2.000000
-0.000594	-10.800000	-2.200000
-0.000592	-11.200000	-2.600000
-0.000590	-11.600000	-3.000000
-0.000588	-12.000000	-3.400000
-0.000586	-12.800000	-3.800000
-0.000584	-13.200000	-4.200000
-0.000582	-13.600000	-4.600000
-0.000580	-14.000000	-4.800000
-0.000578	-14.800000	-5.200000
-0.000576	-15.600000	-5.600000
-0.000574	-16.400000	-6.000000
-0.000572	-17.200000	-6.400000
-0.000570	-18.000000	-6.600000
-0.000568	-18.800000	-7.000000
-0.000566	-20.000000	-7.400000
-0.000564	-21.200000	-7.800000
-0.000562	-22.400000	-8.200000
-0.000560	-23.600000	-8.400000
-0.000558	-24.400000	-8.800000
-0.000556	-24.400000	-9.000000
-0.000554	-22.800000	-8.800000
-0.000552	-22.400000	-9.000000
-0.000550	-20.800000	-8.800000
-0.000548	-20.400000	-9.000000
-0.000546	-19.200000	-8.800000
-0.000544	-18.400000	-8.800000
-0.000542	-17.600000	-8.800000
-0.000540	-16.000000	-8.600000
-0.000538	-15.600000	-8.600000
-0.000536	-14.000000	-8.400000
-0.000534	-14.000000	-8.200000
-0.000532	-12.400000	-8.000000
-0.000530	-12.000000	-8.000000
-0.000528	-10.400000	-7.600000
-0.000526	-10.000000	-7.400000
-0.000524	-8.400000	-7.200000
-0.000522	-8.000000	-7.000000
-0.000520	-6.800000	-6.800000
-0.000518	-6.000000	-6.600000
-0.000516	-4.800000	-6.200000
-0.000514	-4.400000	-6.000000
-0.000512	-2.800000	-5.800000
-0.000510	-2.000000	-5.400000
-0.000508	-1.200000	-5.000000
-0.000506	0.000000	-4.600000
-0.000504	0.800000	-4.400000
-0.000502	1.600000	-4.000000
-0.000500	2.400000	-3.600000
-0.000498	3.600000	-3.200000
-0.000496	4.400000	-2.800000
-0.000494	5.600000	-2.400000
-0.000492	6.400000	-2.000000
-0.000490	7.200000	-1.800000
-0.000488	8.000000	-1.200000
-0.000486	9.200000	-0.800000
-0.000484	10.000000	-0.400000
-0.000482	11.200000	0.000000
-0.000480	12.000000	0.400000
-0.000478	12.400000	0.800000
-0.000476	13.200000	1.200000
-0.000474	14.000000	1.800000
-0.000472	14.800000	2.200000
-0.000470	15.600000	2.600000
-0.000468	16.400000	3.000000
-0.000466	17.200000	3.400000
-0.000464	18.400000	3.800000
-0.000462	19.200000	4.200000
-0.000460	20.000000	4.600000
-0.000458	21.200000	5.000000
-0.000456	22.000000	5.400000
-0.000454	23.200000	5.800000
-0.000452	24.000000	6.200000
-0.000450	25.200000	6.600000
-0.000448	26.000000	7.000000
-0.000446	26.800000	7.400000
-0.000444	27.600000	7.600000
-0.000442	28.000000	8.000000
-0.000440	28.400000	8.200000
-0.000438	26.800000	8.200000
-0.000436	26.000000	8.400000
-0.000434	25.200000	8.400000
-0.000432	24.000000	8.400000
-0.000430	23.600000	8.400000
-0.000428	22.000000	8.400000
-0.000426	21.600000	8.400000
-0.000424	20.000000	8.200000
-0.000422	19.600000	8.200000
-0.000420	18.000000	8.200000
-0.000418	17.600000	8.200000
-0.000416	16.400000	8.000000
-0.000414	16.000000	8.000000
-0.000412	14.800000	7.800000
-0.000410	13.600000	7.800000
-0.000408	12.800000	7.600000
-0.000406	12.000000	7.400000
-0.000404	11.200000	7.400000
-0.000402	10.000000	7.200000
-0.000400	9.200000	7.000000
-0.000398	8.000000	6.600000
-0.000396	7.200000	6.400000
-0.000394	6.000000	6.200000
-0.000392	5.200000	5.800000
-0.000390	4.400000	5.600000
-0.000388	3.600000	5.400000
-0.000386	2.400000	5.000000
-0.000384	1.600000	4.800000
-0.000382	0.800000	4.400000
-0.000380	0.000000	4.200000
-0.000378	-1.200000	3.800000
-0.000376	-2.000000	3.400000
-0.000374	-2.800000	3.200000
-0.000372	-3.200000	2.800000
-0.000370	-4.000000	2.400000
-0.000368	-4.800000	2.200000
-0.000366	-5.200000	1.800000
-0.000364	-6.000000	1.400000
-0.000362	-6.000000	1.000000
-0.000360	-6.800000	0.600000
-0.000358	-7.200000	0.200000
-0.000356	-8.000000	0.000000
-0.000354	-8.400000	-0.400000
-0.000352	-8.800000	-0.800000
-0.000350	-9.200000	-1.200000
-0.000348	-10.000000	-1.600000
-0.000346	-10.400000	-2.000000
-0.000344	-10.800000	-2.400000
-0.000342	-11.200000	-2.800000
-0.000340	-11.600000	-3.200000
-0.000338	-12.400000	-3.600000
-0.000336	-12.800000	-3.800000
-0.000334	-13.200000	-4.200000
-0.000332	-13.600000	-4.600000
-0.000330	-14.400000	-5.000000
-0.000328	-14.800000	-5.400000
-0.000326	-16.000000	-5.800000
-0.000324	-16.400000	-6.000000
-0.000322	-17.200000	-6.400000
-0.000320	-18.400000	-6.800000
-0.000318	-19.200000	-7.200000
-0.000316	-20.400000	-7.400000
-0.000314	-21.600000	-7.800000
-0.000312	-22.800000	-8.200000
-0.000310	-23.600000	-8.600000
-0.000308	-24.800000	-8.800000
-0.000306	-24.000000	-9.000000
-0.000304	-22.400000	-8.800000
-0.000302	-22.000000	-9.000000
-0.000300	-20.400000	-8.800000
-0.000298	-20.400000	-9.000000
-0.000296	-18.400000	-8.800000
-0.000294	-18.400000	-8.800000
-0.000292	-16.800000	-8.600000
-0.000290	-16.400000	-8.600000
-0.000288	-15.200000	-8.400000
-0.000286	-14.000000	-8.200000
-0.000284	-13.600000	-8.200000
-0.000282	-12.000000	-8.000000
-0.000280	-11.600000	-7.800000
-0.000278	-10.400000	-7.600000
-0.000276	-9.600000	-7.400000
-0.000274	-8.400000	-7.200000
-0.000272	-7.600000	-7.000000
-0.000270	-6.400000	-6.800000
-0.000268	-6.000000	-6.400000
-0.000266	-4.400000	-6.200000
-0.000264	-4.000000	-6.000000
-0.000262	-2.400000	-5.600000
-0.000260	-2.000000	-5.200000
-0.000258	-0.800000	-4.800000
-0.000256	0.000000	-4.600000
-0.000254	1.200000	-4.200000
-0.000252	2.000000	-3.800000
-0.000250	2.800000	-3.400000
-0.000248	4.000000	-3.000000
-0.000246	4.800000	-2.800000
-0.000244	5.600000	-2.400000
-0.000242	6.800000	-2.000000
-0.000240	7.600000	-1.600000
-0.000238	8.400000	-1.200000
-0.000236	9.600000	-0.600000
-0.000234	10.400000	-0.200000
-0.000232	11.200000	0.200000
-0.000230	12.000000	0.600000
-0.000228	12.800000	1.000000
-0.000226	13.600000	1.400000
-0.000224	14.400000	1.800000
-0.000222	15.200000	2.200000
-0.000220	16.000000	2.600000
-0.000218	16.800000	3.000000
-0.000216	17.600000	3.400000
-0.000214	18.400000	4.000000
-0.000212	19.600000	4.400000
-0.000210	20.400000	4.800000
-0.000208	21.200000	5.000000
-0.000206	22.400000	5.400000
-0.000204	23.600000	5.800000
-0.000202	24.400000	6.400000
-0.000200	25.200000	6.800000
-0.000198	26.000000	7.000000
-0.000196	26.800000	7.400000
-0.000194	27.600000	7.800000
-0.000192	28.400000	8.000000
-0.000190	28.400000	8.200000
-0.000188	26.000000	8.200000
-0.000186	26.000000	8.400000
-0.000184	24.400000	8.200000
-0.000182	24.000000	8.400000
-0.000180	22.800000	8.400000
-0.000178	22.000000	8.400000
-0.000176	21.200000	8.400000
-0.000174	20.000000	8.200000
-0.000172	19.200000	8.200000
-0.000170	18.000000	8.200000
-0.000168	17.600000	8.200000
-0.000166	16.000000	8.000000
-0.000164	15.600000	8.000000
-0.000162	14.000000	7.800000
-0.000160	13.600000	7.800000
-0.000158	12.400000	7.600000
-0.000156	11.600000	7.400000
-0.000154	10.800000	7.200000
-0.000152	9.600000	7.000000
-0.000150	8.800000	6.800000
-0.000148	8.000000	6.600000
-0.000146	6.800000	6.400000
-0.000144	6.000000	6.000000
-0.000142	5.200000	5.800000
-0.000140	4.000000	5.400000
-0.000138	3.200000	5.200000
-0.000136	2.000000	5.000000
-0.000134	1.200000	4.800000
-0.000132	0.400000	4.400000
-0.000130	-0.400000	4.000000
-0.000128	-1.200000	3.600000
-0.000126	-2.000000	3.400000
-0.000124	-2.800000	3.000000
-0.000122	-3.600000	2.800000
-0.000120	-4.000000	2.400000
-0.000118	-4.800000	2.000000
-0.000116	-5.600000	1.600000
-0.000114	-6.000000	1.200000
-0.000112	-6.400000	1.000000
-0.000110	-6.800000	0.600000
-0.000108	-7.600000	0.200000
-0.000106	-8.000000	-0.200000
-0.000104	-8.400000	-0.600000
-0.000102	-8.800000	-1.000000
-0.000100	-9.600000	-1.400000
-9.800000E-5	-10.000000	-1.800000
-9.600000E-5	-10.800000	-2.200000
-9.400000E-5	-11.200000	-2.600000
-9.200000E-5	-11.600000	-3.000000
-9.000000E-5	-12.000000	-3.200000
-8.800000E-5	-12.400000	-3.600000
-8.600000E-5	-13.200000	-4.000000
-8.400000E-5	-13.600000	-4.400000
-8.200000E-5	-14.000000	-4.800000
-8.000000E-5	-14.400000	-5.000000
-7.800000E-5	-15.200000	-5.400000
-7.600000E-5	-16.000000	-5.800000
-7.400000E-5	-16.800000	-6.200000
-7.200000E-5	-17.600000	-6.600000
-7.000000E-5	-18.400000	-7.000000
-6.800000E-5	-19.600000	-7.200000
-6.600000E-5	-20.800000	-7.600000
-6.400000E-5	-22.000000	-8.000000
-6.200000E-5	-22.800000	-8.400000
-6.000000E-5	-24.000000	-8.600000
-5.800000E-5	-24.800000	-9.000000
-5.600000E-5	-23.200000	-9.000000
-5.400000E-5	-22.400000	-9.000000
-5.200000E-5	-21.600000	-9.000000
-5.000000E-5	-20.400000	-8.800000
-4.800000E-5	-20.000000	-9.000000
-4.600000E-5	-18.400000	-8.800000
-4.400000E-5	-18.000000	-8.800000
-4.200000E-5	-16.400000	-8.600000
-4.000000E-5	-16.000000	-8.600000
-3.800000E-5	-14.400000	-8.400000
-3.600000E-5	-14.000000	-8.200000
-3.400000E-5	-12.800000	-8.200000
-3.200000E-5	-12.000000	-8.000000
-3.000000E-5	-11.200000	-7.800000
-2.800000E-5	-10.000000	-7.400000
-2.600000E-5	-9.200000	-7.400000
-2.400000E-5	-8.000000	-7.000000
-2.200000E-5	-7.200000	-7.000000
-2.000000E-5	-6.400000	-6.600000
-1.800000E-5	-5.600000	-6.400000
-1.600000E-5	-4.400000	-6.000000
-1.400000E-5	-3.600000	-5.800000
-1.200000E-5	-2.400000	-5.600000
-1.000000E-5	-1.600000	-5.200000
-8.000000E-6	-0.400000	-4.800000
-6.000000E-6	0.400000	-4.400000
-4.000000E-6	1.600000	-4.000000
-2.000000E-6	2.000000	-3.800000
0.000000	3.200000	-3.400000
2.000000E-6	4.400000	-3.000000
4.000000E-6	5.200000	-2.600000
6.000000E-6	6.000000	-2.200000
8.000000E-6	6.800000	-1.800000
1.000000E-5	7.600000	-1.400000
1.200000E-5	8.800000	-1.000000
1.400000E-5	10.000000	-0.600000
1.600000E-5	10.800000	0.000000
1.800000E-5	11.600000	0.400000
2.000000E-5	12.400000	0.800000
2.200000E-5	13.200000	1.200000
2.400000E-5	14.000000	1.600000
2.600000E-5	14.800000	2.000000
2.800000E-5	15.600000	2.400000
3.000000E-5	16.400000	2.800000
3.200000E-5	17.200000	3.200000
3.400000E-5	18.000000	3.600000
3.600000E-5	18.800000	4.000000
3.800000E-5	19.600000	4.400000
4.000000E-5	20.800000	4.800000
4.200000E-5	21.600000	5.200000
4.400000E-5	22.800000	5.600000
4.600000E-5	24.000000	6.000000
4.800000E-5	24.800000	6.400000
5.000000E-5	25.600000	6.800000
5.200000E-5	26.400000	7.200000
5.400000E-5	27.200000	7.600000
5.600000E-5	28.000000	7.800000
5.800000E-5	28.400000	8.200000
6.000000E-5	27.600000	8.200000
6.200000E-5	26.000000	8.200000
6.400000E-5	26.000000	8.400000
6.600000E-5	24.000000	8.200000
6.800000E-5	24.000000	8.400000
7.000000E-5	22.400000	8.400000
7.200000E-5	22.000000	8.400000
7.400000E-5	20.400000	8.400000
7.600000E-5	20.000000	8.400000
7.800000E-5	18.800000	8.200000
8.000000E-5	17.600000	8.200000
8.200000E-5	17.200000	8.200000
8.400000E-5	16.000000	8.000000
8.600000E-5	15.200000	8.000000
8.800000E-5	14.000000	7.800000
9.000000E-5	13.600000	7.800000
9.200000E-5	12.000000	7.600000
9.400000E-5	11.600000	7.400000
9.600000E-5	10.400000	7.200000
9.800000E-5	9.600000	7.000000
1.000000E-4	8.400000	6.800000
0.000102	7.600000	6.600000
0.000104	6.400000	6.200000
0.000106	5.600000	6.000000
0.000108	4.800000	5.600000
0.000110	4.000000	5.400000
0.000112	2.800000	5.200000
0.000114	2.000000	5.000000
0.000116	1.200000	4.600000
0.000118	0.400000	4.200000
0.000120	-0.800000	4.000000
0.000122	-1.600000	3.600000
0.000124	-2.400000	3.200000
0.000126	-3.200000	3.000000
0.000128	-3.600000	2.600000
0.000130	-4.400000	2.200000
0.000132	-5.200000	1.800000
0.000134	-5.600000	1.400000
0.000136	-6.000000	1.200000
0.000138	-6.400000	0.800000
0.000140	-7.200000	0.400000
0.000142	-7.600000	0.000000
0.000144	-8.000000	-0.400000
0.000146	-8.800000	-0.800000
0.000148	-9.200000	-1.200000
0.000150	-10.000000	-1.600000
0.000152	-10.400000	-2.000000
0.000154	-10.800000	-2.200000
0.000156	-11.200000	-2.600000
0.000158	-11.600000	-3.000000
0.000160	-12.000000	-3.400000
0.000162	-12.800000	-3.800000
0.000164	-13.200000	-4.200000
0.000166	-13.600000	-4.400000
0.000168	-14.000000	-4.800000
0.000170	-14.400000	-5.200000
0.000172	-15.600000	-5.600000
0.000174	-16.400000	-6.000000
0.000176	-17.200000	-6.400000
0.000178	-18.000000	-6.600000
0.000180	-18.800000	-7.000000
0.000182	-20.000000	-7.400000
0.000184	-21.200000	-7.800000
0.000186	-22.400000	-8.000000
0.000188	-23.200000	-8.400000
0.000190	-24.400000	-8.800000
0.000192	-24.800000	-9.000000
0.000194	-22.800000	-8.800000
0.000196	-22.800000	-9.000000
0.000198	-20.800000	-8.800000
0.000200	-20.400000	-9.000000
0.000202	-19.200000	-8.800000
0.000204	-18.400000	-8.800000
0.000206	-17.600000	-8.800000
0.000208	-16.000000	-8.600000
0.000210	-16.000000	-8.600000
0.000212	-14.000000	-8.400000
0.000214	-14.000000	-8.200000
0.000216	-12.400000	-8.000000
0.000218	-12.000000	-8.000000
0.000220	-10.400000	-7.600000
0.000222	-10.000000	-7.400000
0.000224	-8.800000	-7.200000
0.000226	-8.000000	-7.000000
0.000228	-6.800000	-6.800000
0.000230	-6.000000	-6.600000
0.000232	-5.200000	-6.200000
0.000234	-4.400000	-6.000000
0.000236	-3.200000	-5.800000
0.000238	-2.000000	-5.400000
0.000240	-1.200000	-5.000000
0.000242	0.000000	-4.600000
0.000244	0.800000	-4.400000
0.000246	1.600000	-4.000000
0.000248	2.400000	-3.600000
0.000250	3.600000	-3.200000
0.000252	4.800000	-2.800000
0.000254	5.200000	-2.400000
0.000256	6.400000	-2.200000
0.000258	7.200000	-1.800000
0.000260	8.000000	-1.400000
0.000262	9.200000	-0.800000
0.000264	10.000000	-0.400000
0.000266	11.200000	0.000000
0.000268	11.600000	0.400000
0.000270	12.400000	0.800000
0.000272	13.200000	1.200000
0.000274	14.000000	1.600000
0.000276	14.800000	2.200000
0.000278	15.600000	2.600000
0.000280	16.400000	3.000000
0.000282	17.200000	3.400000
0.000284	18.000000	3.800000
0.000286	19.200000	4.200000
0.000288	20.000000	4.600000
0.000290	20.800000	5.000000
0.000292	22.000000	5.400000
0.000294	23.200000	5.800000
0.000296	24.000000	6.200000
0.000298	24.800000	6.600000
0.000300	25.600000	7.000000
0.000302	26.800000	7.200000
0.000304	27.600000	7.600000
0.000306	28.000000	8.000000
0.000308	28.400000	8.200000
0.000310	26.800000	8.200000
0.000312	26.000000	8.400000
0.000314	25.200000	8.400000
0.000316	24.000000	8.200000
0.000318	23.600000	8.400000
0.000320	22.000000	8.400000
0.000322	22.000000	8.400000
0.000324	20.000000	8.200000
0.000326	19.600000	8.400000
0.000328	18.400000	8.200000
0.000330	18.000000	8.200000
0.000332	16.800000	8.200000
0.000334	15.600000	8.000000
0.000336	14.800000	7.800000
0.000338	13.600000	7.800000
0.000340	13.200000	7.600000
0.000342	12.000000	7.400000
0.000344	11.200000	7.400000
0.000346	10.000000	7.200000
0.000348	9.200000	7.000000
0.000350	8.000000	6.800000
0.000352	7.200000	6.400000
0.000354	6.000000	6.200000
0.000356	5.200000	5.800000
0.000358	4.400000	5.600000
0.000360	3.600000	5.400000
0.000362	2.400000	5.000000
0.000364	1.600000	4.800000
0.000366	0.800000	4.400000
0.000368	0.000000	4.200000
0.000370	-0.800000	3.800000
0.000372	-2.000000	3.400000
0.000374	-2.400000	3.200000
0.000376	-3.200000	2.800000
0.000378	-4.000000	2.400000
0.000380	-4.400000	2.200000
0.000382	-5.200000	1.800000
0.000384	-5.600000	1.400000
0.000386	-6.000000	1.000000
0.000388	-6.400000	0.600000
0.000390	-7.200000	0.400000
0.000392	-8.000000	0.000000
0.000394	-8.400000	-0.400000
0.000396	-8.800000	-0.800000
0.000398	-9.200000	-1.200000
0.000400	-10.000000	-1.600000
0.000402	-10.400000	-2.000000
0.000404	-10.800000	-2.400000
0.000406	-11.200000	-2.800000
0.000408	-11.600000	-3.200000
0.000410	-12.400000	-3.400000
0.000412	-12.800000	-3.800000
0.000414	-13.200000	-4.200000
0.000416	-13.600000	-4.600000
0.000418	-14.400000	-5.000000
0.000420	-14.800000	-5.400000
0.000422	-15.600000	-5.800000
0.000424	-16.400000	-6.000000
0.000426	-17.200000	-6.400000
0.000428	-18.000000	-6.800000
0.000430	-19.200000	-7.000000
0.000432	-20.400000	-7.400000
0.000434	-21.600000	-7.800000
0.000436	-22.400000	-8.200000
0.000438	-23.600000	-8.600000
0.000440	-24.800000	-8.800000
0.000442	-24.000000	-9.000000
0.000444	-22.400000	-8.800000
0.000446	-22.400000	-9.000000
0.000448	-20.400000	-8.800000
0.000450	-20.400000	-9.000000
0.000452	-18.800000	-8.800000
0.000454	-18.400000	-8.800000
0.000456	-17.200000	-8.800000
0.000458	-16.000000	-8.600000
0.000460	-15.200000	-8.400000
0.000462	-14.000000	-8.400000
0.000464	-13.600000	-8.200000
0.000466	-12.000000	-8.000000
0.000468	-11.600000	-7.800000
0.000470	-10.400000	-7.600000
0.000472	-9.600000	-7.400000
0.000474	-8.400000	-7.200000
0.000476	-7.600000	-7.000000
0.000478	-6.400000	-6.800000
0.000480	-6.000000	-6.600000
0.000482	-4.800000	-6.200000
0.000484	-4.000000	-6.000000
0.000486	-2.800000	-5.600000
0.000488	-2.000000	-5.200000
0.000490	-0.800000	-5.000000
0.000492	0.000000	-4.600000
0.000494	0.800000	-4.200000
0.000496	2.000000	-3.800000
0.000498	2.800000	-3.600000
0.000500	4.000000	-3.200000
0.000502	4.800000	-2.800000
0.000504	5.600000	-2.400000
0.000506	6.800000	-2.000000
0.000508	7.600000	-1.600000
0.000510	8.400000	-1.200000
0.000512	9.600000	-0.800000
0.000514	10.400000	-0.200000
0.000516	11.200000	0.200000
0.000518	12.000000	0.600000
0.000520	12.800000	1.000000
0.000522	13.600000	1.400000
0.000524	14.400000	1.800000
0.000526	15.200000	2.200000
0.000528	16.000000	2.600000
0.000530	16.800000	3.000000
0.000532	17.600000	3.400000
0.000534	18.400000	3.800000
0.000536	19.200000	4.400000
0.000538	20.400000	4.800000
0.000540	21.200000	5.000000
0.000542	22.400000	5.400000
0.000544	23.600000	5.800000
0.000546	24.400000	6.400000
0.000548	25.200000	6.800000
0.000550	26.000000	7.000000
0.000552	26.800000	7.400000
0.000554	27.600000	7.800000
0.000556	28.400000	8.000000
0.000558	28.400000	8.200000
0.000560	26.000000	8.200000
0.000562	26.000000	8.400000
0.000564	24.400000	8.400000
0.000566	24.000000	8.400000
0.000568	22.800000	8.400000
0.000570	22.000000	8.400000
0.000572	21.200000	8.400000
0.000574	20.000000	8.200000
0.000576	19.600000	8.200000
0.000578	18.000000	8.200000
0.000580	17.600000	8.200000
0.000582	16.000000	8.000000
0.000584	15.600000	8.000000
0.000586	14.400000	7.800000
0.000588	13.600000	7.800000
0.000590	12.800000	7.600000
0.000592	11.600000	7.400000
0.000594	10.800000	7.200000
0.000596	9.600000	7.000000
0.000598	8.800000	6.800000
0.000600	8.000000	6.600000
0.000602	7.200000	6.400000
0.000604	6.000000	6.000000
0.000606	5.200000	5.800000
0.000608	4.000000	5.600000
0.000610	3.200000	5.200000
0.000612	2.400000	5.000000
0.000614	1.200000	4.800000
0.000616	0.400000	4.400000
0.000618	-0.400000	4.000000
0.000620	-1.200000	3.600000
0.000622	-2.000000	3.400000
0.000624	-2.800000	3.000000
0.000626	-3.600000	2.800000
0.000628	-4.000000	2.400000
0.000630	-4.800000	2.000000
0.000632	-5.600000	1.600000
0.000634	-6.000000	1.200000
0.000636	-6.400000	1.000000
0.000638	-6.800000	0.600000
0.000640	-7.600000	0.200000
0.000642	-8.000000	-0.200000
0.000644	-8.400000	-0.600000
0.000646	-8.800000	-1.000000
0.000648	-9.600000	-1.400000
0.000650	-10.000000	-1.800000
0.000652	-10.800000	-2.200000
0.000654	-11.200000	-2.600000
0.000656	-11.200000	-2.800000
0.000658	-12.000000	-3.200000
0.000660	-12.400000	-3.600000
0.000662	-13.200000	-4.000000
0.000664	-13.200000	-4.400000
0.000666	-14.000000	-4.600000
0.000668	-14.400000	-5.000000
0.000670	-15.200000	-5.400000
0.000672	-16.000000	-5.800000
0.000674	-16.800000	-6.200000
0.000676	-17.600000	-6.600000
0.000678	-18.400000	-6.800000
0.000680	-19.600000	-7.200000
0.000682	-20.800000	-7.600000
0.000684	-22.000000	-8.000000
0.000686	-22.800000	-8.400000
0.000688	-24.000000	-8.600000
0.000690	-24.800000	-9.000000
0.000692	-23.200000	-9.000000
0.000694	-22.400000	-9.000000
0.000696	-21.600000	-9.000000
0.000698	-20.400000	-8.800000
0.000700	-20.000000	-9.000000
0.000702	-18.400000	-8.800000
0.000704	-18.000000	-8.800000
0.000706	-16.400000	-8.600000
0.000708	-16.400000	-8.600000
0.000710	-14.800000	-8.400000
0.000712	-14.000000	-8.200000
0.000714	-12.800000	-8.200000
0.000716	-12.000000	-8.000000
0.000718	-11.200000	-7.800000
0.000720	-10.000000	-7.400000
0.000722	-9.200000	-7.400000
0.000724	-8.000000	-7.000000
0.000726	-7.200000	-7.000000
0.000728	-6.400000	-6.600000
0.000730	-5.600000	-6.400000
0.000732	-4.400000	-6.200000
0.000734	-3.600000	-5.800000
0.000736	-2.400000	-5.600000
0.000738	-1.600000	-5.200000
0.000740	-0.400000	-4.800000
0.000742	0.400000	-4.600000
0.000744	1.200000	-4.200000
0.000746	2.000000	-3.800000
0.000748	3.200000	-3.400000
0.000750	4.400000	-3.000000
0.000752	5.200000	-2.600000
0.000754	6.000000	-2.200000
0.000756	6.800000	-1.800000
0.000758	7.600000	-1.400000
0.000760	8.800000	-1.000000
0.000762	9.600000	-0.600000
0.000764	10.800000	-0.200000
0.000766	11.600000	0.200000
0.000768	12.400000	0.600000
0.000770	12.800000	1.000000
0.000772	13.600000	1.600000
0.000774	14.800000	2.000000
0.000776	15.600000	2.400000
0.000778	16.000000	2.800000
0.000780	16.800000	3.200000
0.000782	18.000000	3.600000
0.000784	18.800000	4.000000
0.000786	19.600000	4.400000
0.000788	20.400000	4.800000
0.000790	21.600000	5.200000
0.000792	22.800000	5.600000
0.000794	23.600000	6.000000
0.000796	24.800000	6.400000
0.000798	25.600000	6.800000
0.000800	26.400000	7.200000
0.000802	27.200000	7.400000
0.000804	28.000000	7.800000
0.000806	28.400000	8.200000
0.000808	28.000000	8.200000
0.000810	26.000000	8.200000
0.000812	26.000000	8.400000
0.000814	24.000000	8.200000
0.000816	24.000000	8.400000
0.000818	22.400000	8.400000
0.000820	22.000000	8.400000
0.000822	20.800000	8.400000
0.000824	20.000000	8.200000
0.000826	18.800000	8.200000
0.000828	17.600000	8.200000
0.000830	17.200000	8.200000
0.000832	16.000000	8.000000
0.000834	15.600000	8.000000
0.000836	14.000000	7.800000
0.000838	13.200000	7.800000
0.000840	12.000000	7.600000
0.000842	11.600000	7.400000
0.000844	10.400000	7.200000
0.000846	9.600000	7.000000
0.000848	8.400000	6.800000
0.000850	7.600000	6.600000
0.000852	6.800000	6.400000
0.000854	5.600000	6.000000
0.000856	4.800000	5.600000
0.000858	4.000000	5.400000
0.000860	2.800000	5.200000
0.000862	2.000000	5.000000
0.000864	1.200000	4.600000
0.000866	0.400000	4.400000
0.000868	-0.800000	4.000000
0.000870	-1.600000	3.600000
0.000872	-2.400000	3.200000
0.000874	-2.800000	3.000000
0.000876	-3.600000	2.600000
0.000878	-4.400000	2.200000
0.000880	-5.200000	2.000000
0.000882	-5.600000	1.600000
0.000884	-6.000000	1.200000
0.000886	-6.400000	0.800000
0.000888	-6.800000	0.400000
0.000890	-7.600000	0.000000
0.000892	-8.000000	-0.200000
0.000894	-8.400000	-0.800000
0.000896	-9.200000	-1.000000
0.000898	-9.600000	-1.600000
0.000900	-10.400000	-1.800000
0.000902	-10.800000	-2.200000
0.000904	-11.200000	-2.600000
0.000906	-11.600000	-3.000000
0.000908	-12.000000	-3.400000
0.000910	-12.800000	-3.600000
0.000912	-13.200000	-4.000000
0.000914	-13.600000	-4.400000
0.000916	-14.000000	-4.800000
0.000918	-14.400000	-5.200000
0.000920	-15.200000	-5.600000
0.000922	-16.400000	-6.000000
0.000924	-16.800000	-6.200000
0.000926	-18.000000	-6.600000
0.000928	-18.800000	-7.000000
0.000930	-20.000000	-7.200000
0.000932	-21.200000	-7.800000
0.000934	-22.400000	-8.000000
0.000936	-23.200000	-8.400000
0.000938	-24.400000	-8.800000
0.000940	-24.800000	-9.000000
0.000942	-22.800000	-8.800000
0.000944	-22.800000	-9.000000
0.000946	-20.800000	-8.800000
0.000948	-20.400000	-9.000000
0.000950	-19.600000	-9.000000
0.000952	-18.400000	-8.800000
0.000954	-17.600000	-8.800000
0.000956	-16.400000	-8.600000
0.000958	-16.000000	-8.600000
0.000960	-14.400000	-8.400000
0.000962	-14.000000	-8.200000
0.000964	-12.400000	-8.000000
0.000966	-12.000000	-8.000000
0.000968	-10.800000	-7.600000
0.000970	-10.000000	-7.400000
0.000972	-8.800000	-7.200000
0.000974	-8.000000	-7.000000
0.000976	-6.800000	-6.800000
0.000978	-6.000000	-6.600000
0.000980	-5.200000	-6.200000
0.000982	-4.400000	-6.000000
0.000984	-3.200000	-5.800000
0.000986	-2.000000	-5.400000
0.000988	-1.200000	-5.000000
0.000990	0.000000	-4.800000
0.000992	0.400000	-4.400000
0.000994	1.600000	-4.000000
0.000996	2.400000	-3.600000
0.000998	3.600000	-3.200000
0.001000	4.400000	-2.800000
0.001002	5.200000	-2.600000
0.001004	6.400000	-2.200000
0.001006	7.200000	-1.800000
0.001008	8.000000	-1.400000
0.001010	9.200000	-1.000000
0.001012	10.000000	-0.400000
0.001014	10.800000	0.000000
0.001016	11.600000	0.400000
0.001018	12.400000	0.800000
0.001020	13.200000	1.200000
0.001022	14.000000	1.600000
0.001024	14.800000	2.000000
0.001026	15.600000	2.400000
0.001028	16.400000	3.000000
0.001030	17.200000	3.200000
0.001032	18.000000	3.600000
0.001034	19.200000	4.200000
0.001036	20.000000	4.600000
0.001038	20.800000	5.000000
0.001040	22.000000	5.400000
0.001042	23.200000	5.800000
0.001044	24.000000	6.200000
0.001046	24.800000	6.600000
0.001048	25.600000	7.000000
0.001050	26.400000	7.200000
0.001052	27.600000	7.600000
0.001054	28.000000	8.000000
0.001056	28.400000	8.200000
0.001058	27.200000	8.200000
0.001060	26.000000	8.400000
0.001062	25.200000	8.400000
0.001064	24.000000	8.200000
0.001066	23.600000	8.400000
0.001068	22.000000	8.400000
0.001070	22.000000	8.400000
0.001072	20.000000	8.200000
0.001074	20.000000	8.400000
0.001076	18.400000	8.200000
0.001078	17.600000	8.200000
0.001080	16.800000	8.200000
0.001082	16.000000	8.000000
0.001084	14.800000	7.800000
0.001086	13.600000	7.800000
0.001088	13.200000	7.600000
0.001090	12.000000	7.400000
0.001092	11.200000	7.400000
0.001094	10.000000	7.200000
0.001096	9.200000	7.000000
0.001098	8.000000	6.800000
0.001100	7.200000	6.600000
0.001102	6.400000	6.200000
0.001104	5.600000	5.800000
0.001106	4.400000	5.600000
0.001108	3.600000	5.400000
0.001110	2.400000	5.000000
0.001112	1.600000	4.800000
0.001114	0.800000	4.600000
0.001116	0.000000	4.200000
0.001118	-0.800000	3.800000
0.001120	-2.000000	3.600000
0.001122	-2.400000	3.200000
0.001124	-3.200000	2.800000
0.001126	-4.000000	2.600000
0.001128	-4.400000	2.200000
0.001130	-5.200000	1.800000
0.001132	-5.600000	1.400000
0.001134	-6.000000	1.000000
0.001136	-6.400000	0.800000
0.001138	-7.200000	0.400000
0.001140	-8.000000	0.000000
0.001142	-8.400000	-0.400000
0.001144	-8.800000	-0.800000
0.001146	-9.200000	-1.200000
0.001148	-10.000000	-1.600000
0.001150	-10.400000	-2.000000
0.001152	-10.800000	-2.400000
0.001154	-11.200000	-2.800000
0.001156	-11.600000	-3.200000
0.001158	-12.400000	-3.400000
0.001160	-12.800000	-3.800000
0.001162	-13.200000	-4.200000
0.001164	-13.600000	-4.600000
0.001166	-14.000000	-4.800000
0.001168	-14.800000	-5.400000
0.001170	-15.600000	-5.600000
0.001172	-16.400000	-6.000000
0.001174	-17.200000	-6.400000
0.001176	-18.000000	-6.800000
0.001178	-19.200000	-7.000000
0.001180	-20.400000	-7.400000
0.001182	-21.600000	-7.800000
0.001184	-22.400000	-8.200000
0.001186	-23.600000	-8.600000
0.001188	-24.800000	-8.800000
0.001190	-24.000000	-9.000000
0.001192	-22.400000	-8.800000
0.001194	-22.400000	-9.000000
0.001196	-20.400000	-8.800000
0.001198	-20.400000	-9.000000
0.001200	-18.800000	-8.800000
0.001202	-18.400000	-8.800000
0.001204	-17.200000	-8.800000
0.001206	-16.000000	-8.600000
0.001208	-15.600000	-8.400000
0.001210	-14.000000	-8.200000
0.001212	-13.600000	-8.200000
0.001214	-12.000000	-8.000000
0.001216	-11.600000	-7.800000
0.001218	-10.400000	-7.600000
0.001220	-10.000000	-7.400000
0.001222	-8.400000	-7.200000
0.001224	-8.000000	-7.000000
0.001226	-6.400000	-6.800000
0.001228	-6.000000	-6.600000
0.001230	-4.800000	-6.200000
0.001232	-4.000000	-6.000000
0.001234	-2.800000	-5.600000
0.001236	-2.000000	-5.400000
0.001238	-0.800000	-5.000000
0.001240	0.000000	-4.600000
0.001242	0.800000	-4.200000
0.001244	2.000000	-4.000000
0.001246	2.800000	-3.600000
0.001248	4.000000	-3.200000
0.001250	4.800000	-2.800000
0.001252	5.600000	-2.400000
0.001254	6.800000	-2.000000
0.001256	7.200000	-1.600000
0.001258	8.400000	-1.200000
0.001260	9.200000	-0.800000
0.001262	10.400000	-0.200000
0.001264	11.200000	0.200000
0.001266	12.000000	0.600000
0.001268	12.800000	1.000000
0.001270	13.600000	1.400000
0.001272	14.400000	1.800000
0.001274	15.200000	2.200000
0.001276	16.000000	2.600000
0.001278	16.800000	3.000000
0.001280	17.600000	3.400000
0.001282	18.400000	3.800000
0.001284	19.200000	4.400000
0.001286	20.400000	4.600000
0.001288	21.200000	5.000000
0.001290	22.400000	5.400000
0.001292	23.200000	5.800000
0.001294	24.400000	6.200000
0.001296	25.200000	6.600000
0.001298	26.000000	7.000000
0.001300	26.800000	7.400000
0.001302	27.600000	7.800000
0.001304	28.000000	8.000000
0.001306	28.400000	8.200000
0.001308	26.400000	8.200000
0.001310	26.000000	8.400000
0.001312	24.800000	8.400000
0.001314	24.000000	8.400000
0.001316	23.200000	8.400000
0.001318	22.000000	8.400000
0.001320	21.200000	8.400000
0.001322	20.000000	8.200000
0.001324	19.600000	8.400000
0.001326	18.000000	8.200000
0.001328	17.600000	8.200000
0.001330	16.400000	8.000000
0.001332	15.600000	8.000000
0.001334	14.400000	7.800000
0.001336	13.600000	7.800000
0.001338	12.800000	7.600000
0.001340	11.600000	7.400000
0.001342	10.800000	7.200000
0.001344	10.000000	7.000000
0.001346	8.800000	6.800000
0.001348	8.000000	6.600000
0.001350	7.200000	6.400000
0.001352	6.000000	6.000000
0.001354	5.200000	5.800000
0.001356	4.000000	5.600000
0.001358	3.200000	5.200000
0.001360	2.400000	5.000000
0.001362	1.200000	4.800000
0.001364	0.400000	4.400000
0.001366	-0.400000	4.000000
0.001368	-1.200000	3.800000
0.001370	-2.000000	3.400000
0.001372	-2.800000	3.000000
0.001374	-3.600000	2.800000
0.001376	-4.000000	2.400000
0.001378	-4.800000	2.000000
0.001380	-5.600000	1.800000
0.001382	-6.000000	1.200000
0.001384	-6.400000	1.000000
0.001386	-6.800000	0.600000
0.001388	-7.600000	0.200000
0.001390	-8.000000	-0.200000
0.001392	-8.400000	-0.600000
0.001394	-8.800000	-1.000000
0.001396	-9.600000	-1.400000
0.001398	-10.000000	-1.800000
0.001400	-10.400000	-2.000000
0.001402	-11.200000	-2.400000
0.001404	-11.200000	-2.800000
0.001406	-12.000000	-3.200000
0.001408	-12.400000	-3.600000
0.001410	-12.800000	-4.000000
0.001412	-13.200000	-4.200000
0.001414	-14.000000	-4.600000
0.001416	-14.400000	-5.000000
0.001418	-15.200000	-5.400000
0.001420	-16.000000	-5.800000
0.001422	-16.800000	-6.200000
0.001424	-17.600000	-6.400000
0.001426	-18.400000	-6.800000
0.001428	-19.600000	-7.200000
0.001430	-20.800000	-7.600000
0.001432	-22.000000	-8.000000
0.001434	-22.800000	-8.200000
0.001436	-24.000000	-8.600000
0.001438	-24.800000	-9.000000
0.001440	-23.600000	-9.000000
0.001442	-22.400000	-9.000000
0.001444	-22.000000	-9.000000
0.001446	-20.400000	-8.800000
0.001448	-20.000000	-9.000000
0.001450	-18.400000	-8.800000
0.001452	-18.000000	-8.800000
0.001454	-16.400000	-8.600000
0.001456	-16.400000	-8.600000
0.001458	-14.800000	-8.400000
0.001460	-14.000000	-8.200000
0.001462	-13.200000	-8.200000
0.001464	-12.000000	-8.000000
0.001466	-11.200000	-7.800000
0.001468	-10.400000	-7.600000
0.001470	-9.600000	-7.400000
0.001472	-8.000000	-7.200000
0.001474	-7.600000	-7.000000
0.001476	-6.400000	-6.600000
0.001478	-5.600000	-6.400000
0.001480	-4.400000	-6.200000
0.001482	-3.600000	-5.800000
0.001484	-2.400000	-5.600000
0.001486	-1.600000	-5.200000
0.001488	-0.400000	-4.800000
0.001490	0.400000	-4.600000
0.001492	1.200000	-4.200000
0.001494	2.000000	-3.800000
0.001496	3.200000	-3.400000
0.001498	4.000000	-3.000000
0.001500	4.800000	-2.600000
0.001502	6.000000	-2.200000
0.001504	6.800000	-1.800000
0.001506	7.600000	-1.600000
0.001508	8.800000	-1.000000
0.001510	9.600000	-0.600000
0.001512	10.800000	-0.200000
0.001514	11.600000	0.200000
0.001516	12.000000	0.600000
0.001518	12.800000	1.000000
0.001520	13.600000	1.400000
0.001522	14.400000	2.000000
0.001524	15.200000	2.400000
0.001526	16.000000	2.800000
0.001528	16.800000	3.200000
0.001530	17.600000	3.600000
0.001532	18.800000	4.000000
0.001534	19.600000	4.400000
0.001536	20.400000	4.800000
0.001538	21.600000	5.200000
0.001540	22.800000	5.600000
0.001542	23.600000	6.000000
0.001544	24.400000	6.400000
0.001546	25.600000	6.800000
0.001548	26.000000	7.200000
0.001550	27.200000	7.400000
0.001552	28.000000	7.800000
0.001554	28.400000	8.000000
0.001556	28.000000	8.400000
0.001558	26.000000	8.200000
0.001560	26.000000	8.400000
0.001562	24.000000	8.200000
0.001564	24.000000	8.400000
0.001566	22.400000	8.400000
0.001568	22.000000	8.400000
0.001570	20.800000	8.400000
0.001572	20.000000	8.200000
0.001574	18.800000	8.200000
0.001576	18.000000	8.200000
0.001578	17.600000	8.200000
0.001580	16.000000	8.000000
0.001582	15.600000	8.000000
0.001584	14.000000	7.800000
0.001586	13.600000	7.800000
0.001588	12.400000	7.600000
0.001590	11.600000	7.400000
0.001592	10.400000	7.200000
0.001594	9.600000	7.000000
0.001596	8.800000	6.800000
0.001598	7.600000	6.600000
0.001600	6.800000	6.400000
0.001602	6.000000	6.000000
0.001604	4.800000	5.800000
0.001606	4.000000	5.400000
0.001608	2.800000	5.200000
0.001610	2.000000	5.000000
0.001612	1.200000	4.600000
0.001614	0.400000	4.400000
0.001616	-0.800000	4.000000
0.001618	-1.600000	3.600000
0.001620	-2.000000	3.200000
0.001622	-2.800000	3.000000
0.001624	-3.600000	2.600000
0.001626	-4.400000	2.200000
0.001628	-5.200000	2.000000
0.001630	-5.600000	1.600000
0.001632	-6.000000	1.200000
0.001634	-6.400000	0.800000
0.001636	-6.800000	0.400000
0.001638	-7.600000	0.000000
0.001640	-8.000000	-0.200000
0.001642	-8.400000	-0.800000
0.001644	-8.800000	-1.000000
0.001646	-9.600000	-1.400000
0.001648	-10.400000	-1.800000
0.001650	-10.800000	-2.200000
0.001652	-11.200000	-2.600000
0.001654	-11.600000	-3.000000
0.001656	-12.000000	-3.400000
0.001658	-12.800000	-3.600000
0.001660	-13.200000	-4.000000
0.001662	-13.600000	-4.400000
0.001664	-14.000000	-4.800000
0.001666	-14.400000	-5.200000
0.001668	-15.600000	-5.600000
0.001670	-16.000000	-6.000000
0.001672	-16.800000	-6.200000
0.001674	-17.600000	-6.600000
0.001676	-18.800000	-7.000000
0.001678	-20.000000	-7.200000
0.001680	-20.800000	-7.600000
0.001682	-22.000000	-8.000000
0.001684	-23.200000	-8.400000
0.001686	-24.400000	-8.800000
0.001688	-24.800000	-9.000000
0.001690	-22.800000	-8.800000
0.001692	-22.800000	-9.000000
0.001694	-21.200000	-9.000000
0.001696	-20.400000	-8.800000
0.001698	-19.600000	-9.000000
0.001700	-18.400000	-8.800000
0.001702	-18.000000	-8.800000
0.001704	-16.400000	-8.600000
0.001706	-16.000000	-8.600000
0.001708	-14.400000	-8.400000
0.001710	-14.000000	-8.200000
0.001712	-12.400000	-8.000000
0.001714	-12.000000	-8.000000
0.001716	-10.800000	-7.600000
0.001718	-10.000000	-7.400000
0.001720	-8.800000	-7.200000
0.001722	-8.000000	-7.000000
0.001724	-7.200000	-6.800000
0.001726	-6.000000	-6.600000
0.001728	-5.200000	-6.400000
0.001730	-4.400000	-6.000000
0.001732	-3.200000	-5.800000
0.001734	-2.000000	-5.400000
0.001736	-1.200000	-5.000000
0.001738	-0.400000	-4.800000
0.001740	0.400000	-4.400000
0.001742	1.600000	-4.000000
0.001744	2.400000	-3.600000
0.001746	3.600000	-3.200000
0.001748	4.400000	-2.800000
0.001750	5.200000	-2.600000
0.001752	6.400000	-2.200000
0.001754	7.200000	-1.800000
0.001756	8.000000	-1.400000
0.001758	8.800000	-1.000000
0.001760	10.000000	-0.400000
0.001762	10.800000	0.000000
0.001764	11.600000	0.400000
0.001766	12.400000	0.800000
0.001768	13.200000	1.200000
0.001770	14.000000	1.600000
0.001772	14.800000	2.000000
0.001774	15.600000	2.400000
0.001776	16.400000	2.800000
0.001778	17.200000	3.200000
0.001780	18.000000	3.600000
0.001782	19.200000	4.200000
0.001784	20.000000	4.600000
0.001786	20.800000	5.000000
0.001788	22.000000	5.200000
0.001790	22.800000	5.600000
0.001792	24.000000	6.200000
0.001794	24.800000	6.600000
0.001796	25.600000	7.000000
0.001798	26.400000	7.200000
0.001800	27.200000	7.600000
0.001802	28.000000	7.800000
0.001804	28.400000	8.200000
0.001806	27.200000	8.200000
0.001808	26.000000	8.200000
0.001810	25.600000	8.400000
0.001812	24.000000	8.200000
0.001814	24.000000	8.400000
0.001816	22.000000	8.400000
0.001818	22.000000	8.400000
0.001820	20.000000	8.200000
0.001822	20.000000	8.200000
0.001824	18.400000	8.200000
0.001826	17.600000	8.200000
0.001828	16.800000	8.200000
0.001830	16.000000	8.000000
0.001832	15.200000	8.000000
0.001834	13.600000	7.800000
0.001836	13.200000	7.600000
0.001838	12.000000	7.600000
0.001840	11.200000	7.400000
0.001842	10.000000	7.200000
0.001844	9.200000	7.000000
0.001846	8.000000	6.800000
0.001848	7.600000	6.600000
0.001850	6.400000	6.200000
0.001852	5.600000	5.800000
0.001854	4.400000	5.600000
0.001856	3.600000	5.400000
0.001858	2.800000	5.000000
0.001860	1.600000	4.800000
0.001862	0.800000	4.600000
0.001864	0.000000	4.200000
0.001866	-0.800000	3.800000
0.001868	-1.600000	3.400000
0.001870	-2.400000	3.200000
0.001872	-3.200000	2.800000
0.001874	-4.000000	2.600000
0.001876	-4.400000	2.200000
0.001878	-5.200000	1.800000
0.001880	-5.600000	1.400000
0.001882	-6.000000	1.000000
0.001884	-6.400000	0.800000
0.001886	-7.200000	0.400000
0.001888	-7.600000	0.000000
0.001890	-8.400000	-0.400000
0.001892	-8.800000	-0.800000
0.001894	-9.200000	-1.200000
0.001896	-10.000000	-1.600000
0.001898	-10.400000	-2.000000
0.001900	-10.800000	-2.400000
0.001902	-11.200000	-2.800000
0.001904	-11.600000	-3.000000
0.001906	-12.400000	-3.400000
0.001908	-12.800000	-3.800000
0.001910	-13.200000	-4.200000
0.001912	-13.600000	-4.600000
0.001914	-14.000000	-4.800000
0.001916	-14.800000	-5.200000
0.001918	-15.600000	-5.600000
0.001920	-16.400000	-6.000000
0.001922	-17.200000	-6.400000
0.001924	-18.000000	-6.800000
0.001926	-19.200000	-7.000000
0.001928	-20.000000	-7.400000
0.001930	-21.200000	-7.800000
0.001932	-22.400000	-8.200000
0.001934	-23.600000	-8.600000
0.001936	-24.800000	-8.800000
0.001938	-24.400000	-9.000000
0.001940	-22.400000	-8.800000
0.001942	-22.400000	-9.000000
0.001944	-20.400000	-8.800000
0.001946	-20.400000	-9.000000
0.001948	-18.800000	-8.800000
0.001950	-18.400000	-8.800000
0.001952	-17.200000	-8.800000
0.001954	-16.000000	-8.600000
0.001956	-15.600000	-8.600000
0.001958	-14.000000	-8.200000
0.001960	-13.600000	-8.200000
0.001962	-12.000000	-8.000000
0.001964	-12.000000	-7.800000
0.001966	-10.400000	-7.600000
0.001968	-10.000000	-7.400000
0.001970	-8.400000	-7.200000
0.001972	-8.000000	-7.000000
0.001974	-6.800000	-6.800000
0.001976	-6.000000	-6.600000
0.001978	-4.800000	-6.200000
0.001980	-4.000000	-6.000000
0.001982	-2.800000	-5.600000
0.001984	-2.000000	-5.400000
0.001986	-0.800000	-5.000000
0.001988	0.000000	-4.600000
0.001990	0.800000	-4.400000
0.001992	1.600000	-4.000000
0.001994	2.800000	-3.600000
0.001996	4.000000	-3.200000
0.001998	4.800000	-2.800000
0.002000	5.600000	-2.400000
0.002002	6.800000	-2.000000
0.002004	7.200000	-1.600000
0.002006	8.400000	-1.200000
0.002008	9.200000	-0.800000
0.002010	10.400000	-0.400000
0.002012	11.200000	0.200000
0.002014	12.000000	0.600000
0.002016	12.800000	1.000000
0.002018	13.200000	1.400000
0.002020	14.400000	1.800000
0.002022	15.200000	2.200000
0.002024	16.000000	2.600000
0.002026	16.800000	3.000000
0.002028	17.600000	3.400000
0.002030	18.400000	3.800000
0.002032	19.200000	4.200000
0.002034	20.000000	4.600000
0.002036	21.200000	5.000000
0.002038	22.400000	5.400000
0.002040	23.200000	5.800000
0.002042	24.400000	6.200000
0.002044	25.200000	6.600000
0.002046	26.000000	7.000000
0.002048	26.800000	7.400000
0.002050	27.600000	7.600000
0.002052	28.400000	8.000000
0.002054	28.400000	8.200000
0.002056	26.400000	8.200000
0.002058	26.000000	8.400000
0.002060	24.800000	8.400000
0.002062	24.000000	8.400000
0.002064	23.200000	8.400000
0.002066	22.000000	8.400000
0.002068	21.600000	8.400000
0.002070	20.000000	8.200000
0.002072	19.600000	8.200000
0.002074	18.000000	8.200000
0.002076	17.600000	8.200000
0.002078	16.400000	8.000000
0.002080	15.600000	8.000000
0.002082	14.400000	7.800000
0.002084	13.600000	7.800000
0.002086	12.800000	7.600000
0.002088	11.600000	7.400000
0.002090	10.800000	7.400000
0.002092	10.000000	7.000000
0.002094	8.800000	6.800000
0.002096	8.000000	6.600000
0.002098	7.200000	6.400000
0.002100	6.000000	6.200000
0.002102	5.200000	5.800000
0.002104	4.400000	5.600000
0.002106	3.200000	5.200000
0.002108	2.400000	5.000000
0.002110	1.200000	4.800000
0.002112	0.800000	4.400000
0.002114	-0.400000	4.000000
0.002116	-1.200000	3.800000
0.002118	-2.000000	3.400000
0.002120	-2.800000	3.000000
0.002122	-3.600000	2.800000
0.002124	-4.000000	2.400000
0.002126	-4.800000	2.000000
0.002128	-5.200000	1.800000
0.002130	-5.600000	1.200000
0.002132	-6.400000	1.000000
0.002134	-6.800000	0.600000
0.002136	-7.200000	0.200000
0.002138	-8.000000	-0.200000
0.002140	-8.400000	-0.600000
0.002142	-8.800000	-1.000000
0.002144	-9.600000	-1.400000
0.002146	-10.000000	-1.800000
0.002148	-10.400000	-2.000000
0.002150	-10.800000	-2.400000
0.002152	-11.200000	-2.800000
0.002154	-12.000000	-3.200000
0.002156	-12.400000	-3.600000
0.002158	-12.800000	-4.000000
0.002160	-13.200000	-4.200000
0.002162	-13.600000	-4.600000
0.002164	-14.400000	-5.000000
0.002166	-14.800000	-5.400000
0.002168	-16.000000	-5.800000
0.002170	-16.800000	-6.200000
0.002172	-17.600000	-6.400000
0.002174	-18.400000	-6.800000
0.002176	-19.600000	-7.200000
0.002178	-20.800000	-7.600000
0.002180	-21.600000	-8.000000
0.002182	-22.800000	-8.200000
0.002184	-24.000000	-8.600000
0.002186	-24.800000	-9.000000
0.002188	-23.600000	-9.000000
0.002190	-22.400000	-9.000000
0.002192	-22.000000	-9.000000
0.002194	-20.400000	-8.800000
0.002196	-20.000000	-9.000000
0.002198	-18.400000	-8.800000
0.002200	-18.400000	-8.800000
0.002202	-16.800000	-8.600000
0.002204	-16.400000	-8.600000
0.002206	-14.800000	-8.400000
0.002208	-14.000000	-8.200000
0.002210	-13.200000	-8.200000
0.002212	-12.000000	-8.000000
0.002214	-11.200000	-7.800000
0.002216	-10.400000	-7.600000
0.002218	-9.600000	-7.400000
0.002220	-8.000000	-7.000000
0.002222	-7.600000	-7.000000
0.002224	-6.400000	-6.600000
0.002226	-6.000000	-6.400000
0.002228	-4.400000	-6.200000
0.002230	-4.000000	-6.000000
0.002232	-2.400000	-5.600000
0.002234	-1.600000	-5.200000
0.002236	-0.400000	-4.800000
0.002238	0.000000	-4.600000
0.002240	1.200000	-4.200000
0.002242	2.000000	-3.800000
0.002244	2.800000	-3.400000
0.002246	4.000000	-3.000000
0.002248	4.800000	-2.600000
0.002250	6.000000	-2.200000
0.002252	6.800000	-2.000000
0.002254	7.600000	-1.600000
0.002256	8.800000	-1.200000
0.002258	9.600000	-0.600000
0.002260	10.800000	-0.200000
0.002262	11.600000	0.200000
0.002264	12.000000	0.600000
0.002266	12.800000	1.000000
0.002268	13.600000	1.400000
0.002270	14.400000	2.000000
0.002272	15.200000	2.400000
0.002274	16.000000	2.800000
0.002276	16.800000	3.200000
0.002278	17.600000	3.600000
0.002280	18.800000	4.000000
0.002282	19.600000	4.400000
0.002284	20.400000	4.800000
0.002286	21.600000	5.200000
0.002288	22.400000	5.600000
0.002290	23.600000	6.000000
0.002292	24.400000	6.400000
0.002294	25.600000	6.800000
0.002296	26.000000	7.200000
0.002298	27.200000	7.400000
0.002300	28.000000	7.800000
0.002302	28.400000	8.000000
0.002304	28.000000	8.200000
0.002306	26.000000	8.200000
0.002308	26.000000	8.400000
0.002310	24.400000	8.200000
0.002312	24.000000	8.400000
0.002314	22.400000	8.400000
0.002316	22.000000	8.400000
0.002318	20.800000	8.400000
0.002320	20.000000	8.200000
0.002322	19.200000	8.200000
0.002324	17.600000	8.200000
0.002326	17.600000	8.200000
0.002328	16.000000	8.000000
0.002330	15.600000	8.000000
0.002332	14.000000	7.800000
0.002334	13.600000	7.800000
0.002336	12.400000	7.600000
0.002338	11.600000	7.400000
0.002340	10.400000	7.200000
0.002342	9.600000	7.000000
0.002344	8.800000	6.800000
0.002346	7.600000	6.600000
0.002348	6.800000	6.400000
0.002350	5.600000	6.000000
0.002352	4.800000	5.800000
0.002354	4.000000	5.400000
0.002356	3.200000	5.200000
0.002358	2.000000	5.000000
0.002360	1.200000	4.600000
0.002362	0.400000	4.400000
0.002364	-0.400000	4.000000
0.002366	-1.200000	3.600000
0.002368	-2.400000	3.400000
0.002370	-2.800000	3.000000
0.002372	-3.600000	2.600000
0.002374	-4.400000	2.400000
0.002376	-4.800000	2.000000
0.002378	-5.600000	1.600000
0.002380	-6.000000	1.200000
0.002382	-6.400000	0.800000
0.002384	-6.800000	0.400000
0.002386	-7.600000	0.000000
0.002388	-8.000000	-0.200000
0.002390	-8.400000	-0.600000
0.002392	-9.200000	-1.000000
0.002394	-9.600000	-1.400000
0.002396	-10.400000	-1.800000
0.002398	-10.800000	-2.200000
0.002400	-11.200000	-2.600000
0.002402	-11.600000	-3.000000
0.002404	-12.000000	-3.400000
0.002406	-12.400000	-3.600000
0.002408	-13.200000	-4.000000
0.002410	-13.600000	-4.400000
0.002412	-14.000000	-4.800000
0.002414	-14.400000	-5.200000
0.002416	-15.200000	-5.600000
0.002418	-16.000000	-5.800000
0.002420	-16.800000	-6.200000
0.002422	-17.600000	-6.600000
0.002424	-18.800000	-7.000000
0.002426	-19.600000	-7.200000
0.002428	-20.800000	-7.600000
0.002430	-22.000000	-8.000000
0.002432	-23.200000	-8.400000
0.002434	-24.400000	-8.800000
0.002436	-24.800000	-9.000000
0.002438	-23.200000	-9.000000
0.002440	-22.400000	-9.000000
0.002442	-21.200000	-9.000000
0.002444	-20.400000	-8.800000
0.002446	-19.600000	-9.000000
0.002448	-18.400000	-8.800000
0.002450	-18.000000	-8.800000
0.002452	-16.400000	-8.600000
0.002454	-16.000000	-8.600000
0.002456	-14.400000	-8.400000
0.002458	-14.000000	-8.200000
0.002460	-12.800000	-8.000000
0.002462	-12.000000	-8.000000
0.002464	-10.800000	-7.600000
0.002466	-10.000000	-7.400000
0.002468	-9.200000	-7.200000
0.002470	-8.000000	-7.000000
0.002472	-7.200000	-6.800000
0.002474	-6.400000	-6.600000
0.002476	-5.200000	-6.400000
0.002478	-4.400000	-6.000000
0.002480	-3.200000	-5.800000
0.002482	-2.000000	-5.400000
0.002484	-1.200000	-5.000000
0.002486	-0.400000	-4.800000
0.002488	0.400000	-4.400000
0.002490	1.600000	-4.000000
0.002492	2.400000	-3.800000
0.002494	3.600000	-3.400000
0.002496	4.400000	-3.000000
0.002498	5.200000	-2.600000

