LabVIEW Measurement	
Writer_Version	2
Reader_Version	2
Separator	Tab
Decimal_Separator	.
Multi_Headings	Yes
X_Columns	One
Time_Pref	Relative
Operator	e014
Description	Hysteresis Loop Data
Date	2015/07/23
Time	13:38:16.8363451957702636719
***End_of_Header***	
	
Channels	2		
Samples	2500	2500	
Date	2015/07/23	2015/07/23	
Time	13:38:16.8363451957702636719	13:38:16.8363451957702636719	
X_Dimension	Time	Time	
X0	-5.0000000000000001E-3	-5.0000000000000001E-3	
Delta_X	4.000000E-6	4.000000E-6	
***End_of_Header***			
X_Value	Untitled	Untitled 1	Comment
-0.005000	3.200000	0.800000
-0.004996	4.000000	1.040000
-0.004992	4.800000	1.200000
-0.004988	5.200000	1.440000
-0.004984	6.000000	1.680000
-0.004980	6.800000	1.920000
-0.004976	7.600000	2.080000
-0.004972	8.400000	2.320000
-0.004968	9.200000	2.480000
-0.004964	10.000000	2.720000
-0.004960	10.400000	2.880000
-0.004956	11.200000	3.120000
-0.004952	12.000000	3.280000
-0.004948	12.800000	3.440000
-0.004944	13.600000	3.600000
-0.004940	14.400000	3.760000
-0.004936	15.200000	3.920000
-0.004932	16.000000	4.080000
-0.004928	16.400000	4.240000
-0.004924	17.200000	4.400000
-0.004920	18.000000	4.560000
-0.004916	18.800000	4.720000
-0.004912	19.600000	4.880000
-0.004908	20.000000	5.040000
-0.004904	21.200000	5.200000
-0.004900	21.600000	5.280000
-0.004896	22.400000	5.440000
-0.004892	23.200000	5.600000
-0.004888	24.000000	5.760000
-0.004884	24.800000	5.920000
-0.004880	25.200000	6.000000
-0.004876	26.000000	6.160000
-0.004872	26.800000	6.320000
-0.004868	27.600000	6.560000
-0.004864	28.400000	6.720000
-0.004860	28.800000	6.880000
-0.004856	28.800000	6.800000
-0.004852	28.000000	6.640000
-0.004848	27.200000	6.560000
-0.004844	26.400000	6.400000
-0.004840	25.600000	6.320000
-0.004836	24.800000	6.160000
-0.004832	24.000000	6.080000
-0.004828	23.200000	5.920000
-0.004824	22.400000	5.840000
-0.004820	22.000000	5.760000
-0.004816	21.200000	5.600000
-0.004812	20.400000	5.440000
-0.004808	19.600000	5.360000
-0.004804	18.800000	5.200000
-0.004800	18.000000	5.120000
-0.004796	17.200000	4.960000
-0.004792	16.400000	4.800000
-0.004788	16.000000	4.640000
-0.004784	15.200000	4.480000
-0.004780	14.400000	4.320000
-0.004776	13.600000	4.160000
-0.004772	12.800000	4.000000
-0.004768	12.000000	3.760000
-0.004764	11.200000	3.600000
-0.004760	10.400000	3.440000
-0.004756	9.600000	3.200000
-0.004752	9.200000	3.040000
-0.004748	8.400000	2.800000
-0.004744	7.600000	2.560000
-0.004740	6.800000	2.400000
-0.004736	6.000000	2.160000
-0.004732	5.200000	1.920000
-0.004728	4.400000	1.680000
-0.004724	3.600000	1.440000
-0.004720	3.200000	1.200000
-0.004716	2.000000	0.960000
-0.004712	1.600000	0.720000
-0.004708	0.800000	0.480000
-0.004704	0.000000	0.240000
-0.004700	-0.800000	0.080000
-0.004696	-1.200000	-0.240000
-0.004692	-2.000000	-0.480000
-0.004688	-2.800000	-0.720000
-0.004684	-4.000000	-0.960000
-0.004680	-4.400000	-1.200000
-0.004676	-5.200000	-1.360000
-0.004672	-6.000000	-1.600000
-0.004668	-6.800000	-1.840000
-0.004664	-7.600000	-2.080000
-0.004660	-8.400000	-2.240000
-0.004656	-8.800000	-2.480000
-0.004652	-9.600000	-2.720000
-0.004648	-10.400000	-2.880000
-0.004644	-11.200000	-3.040000
-0.004640	-12.000000	-3.280000
-0.004636	-12.800000	-3.440000
-0.004632	-13.600000	-3.600000
-0.004628	-14.400000	-3.760000
-0.004624	-14.800000	-3.920000
-0.004620	-15.600000	-4.080000
-0.004616	-16.400000	-4.240000
-0.004612	-17.200000	-4.480000
-0.004608	-18.000000	-4.560000
-0.004604	-18.800000	-4.720000
-0.004600	-19.600000	-4.880000
-0.004596	-20.400000	-5.040000
-0.004592	-20.800000	-5.200000
-0.004588	-21.600000	-5.360000
-0.004584	-22.400000	-5.520000
-0.004580	-23.200000	-5.680000
-0.004576	-24.000000	-5.760000
-0.004572	-24.800000	-6.000000
-0.004568	-25.600000	-6.160000
-0.004564	-26.000000	-6.240000
-0.004560	-26.800000	-6.400000
-0.004556	-27.600000	-6.640000
-0.004552	-28.400000	-6.800000
-0.004548	-29.200000	-6.960000
-0.004544	-28.800000	-6.960000
-0.004540	-28.000000	-6.800000
-0.004536	-27.200000	-6.720000
-0.004532	-26.400000	-6.560000
-0.004528	-26.000000	-6.400000
-0.004524	-25.200000	-6.320000
-0.004520	-24.400000	-6.160000
-0.004516	-23.600000	-6.080000
-0.004512	-22.800000	-5.920000
-0.004508	-22.000000	-5.760000
-0.004504	-21.200000	-5.680000
-0.004500	-20.400000	-5.520000
-0.004496	-19.600000	-5.440000
-0.004492	-18.800000	-5.280000
-0.004488	-18.400000	-5.120000
-0.004484	-17.600000	-5.040000
-0.004480	-16.800000	-4.880000
-0.004476	-16.000000	-4.720000
-0.004472	-15.200000	-4.560000
-0.004468	-14.400000	-4.320000
-0.004464	-13.600000	-4.160000
-0.004460	-12.800000	-4.000000
-0.004456	-12.000000	-3.840000
-0.004452	-11.200000	-3.680000
-0.004448	-10.800000	-3.440000
-0.004444	-10.000000	-3.280000
-0.004440	-9.200000	-3.040000
-0.004436	-8.400000	-2.880000
-0.004432	-7.600000	-2.640000
-0.004428	-6.800000	-2.400000
-0.004424	-6.400000	-2.160000
-0.004420	-5.600000	-2.000000
-0.004416	-4.800000	-1.760000
-0.004412	-4.000000	-1.440000
-0.004408	-3.200000	-1.200000
-0.004404	-2.400000	-0.960000
-0.004400	-1.600000	-0.720000
-0.004396	-0.800000	-0.480000
-0.004392	0.000000	-0.240000
-0.004388	0.800000	0.000000
-0.004384	1.200000	0.240000
-0.004380	2.000000	0.480000
-0.004376	2.800000	0.720000
-0.004372	3.600000	0.960000
-0.004368	4.400000	1.120000
-0.004364	5.200000	1.360000
-0.004360	6.000000	1.600000
-0.004356	6.400000	1.840000
-0.004352	7.200000	2.000000
-0.004348	8.000000	2.240000
-0.004344	8.800000	2.480000
-0.004340	9.600000	2.640000
-0.004336	10.400000	2.880000
-0.004332	11.200000	3.040000
-0.004328	12.000000	3.200000
-0.004324	12.800000	3.360000
-0.004320	13.200000	3.600000
-0.004316	14.000000	3.760000
-0.004312	14.800000	3.920000
-0.004308	15.600000	4.080000
-0.004304	16.400000	4.240000
-0.004300	17.200000	4.400000
-0.004296	17.600000	4.560000
-0.004292	18.400000	4.640000
-0.004288	19.200000	4.800000
-0.004284	20.000000	4.960000
-0.004280	20.800000	5.120000
-0.004276	21.600000	5.280000
-0.004272	22.400000	5.440000
-0.004268	23.200000	5.520000
-0.004264	23.600000	5.680000
-0.004260	24.400000	5.840000
-0.004256	25.200000	6.000000
-0.004252	26.000000	6.160000
-0.004248	26.800000	6.320000
-0.004244	27.600000	6.480000
-0.004240	28.400000	6.720000
-0.004236	28.800000	6.800000
-0.004232	28.800000	6.800000
-0.004228	28.000000	6.720000
-0.004224	27.200000	6.560000
-0.004220	26.400000	6.480000
-0.004216	25.600000	6.320000
-0.004212	24.800000	6.240000
-0.004208	24.400000	6.080000
-0.004204	23.600000	5.920000
-0.004200	22.800000	5.920000
-0.004196	22.000000	5.760000
-0.004192	21.200000	5.600000
-0.004188	20.400000	5.520000
-0.004184	19.600000	5.360000
-0.004180	18.800000	5.280000
-0.004176	18.000000	5.120000
-0.004172	17.600000	4.960000
-0.004168	16.800000	4.800000
-0.004164	16.000000	4.640000
-0.004160	15.200000	4.560000
-0.004156	14.400000	4.400000
-0.004152	13.600000	4.160000
-0.004148	12.800000	4.000000
-0.004144	12.400000	3.840000
-0.004140	11.600000	3.680000
-0.004136	10.800000	3.440000
-0.004132	10.000000	3.280000
-0.004128	9.200000	3.040000
-0.004124	8.400000	2.880000
-0.004120	7.600000	2.640000
-0.004116	6.800000	2.400000
-0.004112	6.000000	2.160000
-0.004108	5.600000	2.000000
-0.004104	4.800000	1.760000
-0.004100	4.000000	1.520000
-0.004096	3.200000	1.280000
-0.004092	2.400000	1.040000
-0.004088	1.600000	0.800000
-0.004084	0.800000	0.560000
-0.004080	0.400000	0.320000
-0.004076	-0.400000	0.080000
-0.004072	-1.200000	-0.160000
-0.004068	-2.000000	-0.400000
-0.004064	-2.800000	-0.640000
-0.004060	-3.600000	-0.880000
-0.004056	-4.400000	-1.120000
-0.004052	-5.200000	-1.360000
-0.004048	-6.000000	-1.600000
-0.004044	-6.400000	-1.760000
-0.004040	-7.200000	-2.000000
-0.004036	-8.000000	-2.240000
-0.004032	-8.800000	-2.400000
-0.004028	-9.600000	-2.640000
-0.004024	-10.400000	-2.800000
-0.004020	-11.200000	-3.040000
-0.004016	-12.000000	-3.200000
-0.004012	-12.400000	-3.360000
-0.004008	-13.200000	-3.520000
-0.004004	-14.000000	-3.760000
-0.004000	-14.800000	-3.920000
-0.003996	-15.600000	-4.080000
-0.003992	-16.400000	-4.240000
-0.003988	-17.200000	-4.400000
-0.003984	-18.000000	-4.560000
-0.003980	-18.400000	-4.720000
-0.003976	-19.200000	-4.800000
-0.003972	-20.000000	-4.960000
-0.003968	-20.800000	-5.120000
-0.003964	-21.600000	-5.280000
-0.003960	-22.400000	-5.440000
-0.003956	-23.200000	-5.600000
-0.003952	-23.600000	-5.760000
-0.003948	-24.400000	-5.920000
-0.003944	-25.200000	-6.080000
-0.003940	-26.000000	-6.240000
-0.003936	-26.800000	-6.400000
-0.003932	-27.600000	-6.560000
-0.003928	-28.400000	-6.720000
-0.003924	-29.200000	-6.960000
-0.003920	-29.200000	-6.960000
-0.003916	-28.400000	-6.880000
-0.003912	-27.600000	-6.720000
-0.003908	-26.800000	-6.640000
-0.003904	-26.000000	-6.480000
-0.003900	-25.200000	-6.320000
-0.003896	-24.400000	-6.160000
-0.003892	-23.600000	-6.080000
-0.003888	-22.800000	-6.000000
-0.003884	-22.400000	-5.840000
-0.003880	-21.200000	-5.680000
-0.003876	-20.400000	-5.600000
-0.003872	-20.000000	-5.440000
-0.003868	-19.200000	-5.360000
-0.003864	-18.400000	-5.200000
-0.003860	-17.600000	-5.040000
-0.003856	-16.800000	-4.880000
-0.003852	-16.000000	-4.720000
-0.003848	-15.200000	-4.560000
-0.003844	-14.400000	-4.400000
-0.003840	-13.600000	-4.240000
-0.003836	-13.200000	-4.080000
-0.003832	-12.400000	-3.840000
-0.003828	-11.600000	-3.680000
-0.003824	-10.800000	-3.520000
-0.003820	-10.400000	-3.280000
-0.003816	-9.600000	-3.120000
-0.003812	-8.800000	-2.880000
-0.003808	-8.000000	-2.720000
-0.003804	-7.200000	-2.480000
-0.003800	-6.400000	-2.240000
-0.003796	-5.600000	-2.000000
-0.003792	-4.800000	-1.760000
-0.003788	-4.000000	-1.520000
-0.003784	-3.200000	-1.280000
-0.003780	-2.400000	-1.040000
-0.003776	-1.600000	-0.800000
-0.003772	-0.800000	-0.560000
-0.003768	-0.400000	-0.320000
-0.003764	0.400000	-0.080000
-0.003760	1.200000	0.160000
-0.003756	2.000000	0.400000
-0.003752	2.800000	0.640000
-0.003748	3.600000	0.880000
-0.003744	4.400000	1.120000
-0.003740	4.800000	1.360000
-0.003736	5.600000	1.600000
-0.003732	6.400000	1.760000
-0.003728	7.200000	2.000000
-0.003724	8.000000	2.240000
-0.003720	8.800000	2.400000
-0.003716	9.600000	2.640000
-0.003712	10.400000	2.800000
-0.003708	10.800000	2.960000
-0.003704	11.600000	3.200000
-0.003700	12.400000	3.360000
-0.003696	13.200000	3.520000
-0.003692	14.000000	3.680000
-0.003688	14.800000	3.840000
-0.003684	15.600000	4.000000
-0.003680	16.400000	4.160000
-0.003676	17.200000	4.400000
-0.003672	17.600000	4.480000
-0.003668	18.400000	4.640000
-0.003664	19.200000	4.800000
-0.003660	20.000000	4.960000
-0.003656	20.400000	5.120000
-0.003652	21.200000	5.200000
-0.003648	22.000000	5.360000
-0.003644	22.800000	5.520000
-0.003640	23.600000	5.680000
-0.003636	24.400000	5.840000
-0.003632	25.200000	6.000000
-0.003628	25.600000	6.160000
-0.003624	26.400000	6.320000
-0.003620	27.200000	6.480000
-0.003616	28.000000	6.640000
-0.003612	28.800000	6.800000
-0.003608	28.800000	6.880000
-0.003604	28.400000	6.720000
-0.003600	27.600000	6.640000
-0.003596	26.800000	6.480000
-0.003592	26.000000	6.320000
-0.003588	25.200000	6.240000
-0.003584	24.400000	6.160000
-0.003580	23.600000	6.000000
-0.003576	22.800000	5.920000
-0.003572	22.000000	5.760000
-0.003568	21.600000	5.680000
-0.003564	20.800000	5.520000
-0.003560	20.000000	5.360000
-0.003556	19.200000	5.280000
-0.003552	18.400000	5.120000
-0.003548	17.600000	5.040000
-0.003544	16.800000	4.880000
-0.003540	16.400000	4.720000
-0.003536	15.600000	4.560000
-0.003532	14.800000	4.400000
-0.003528	14.000000	4.240000
-0.003524	13.200000	4.080000
-0.003520	12.400000	3.920000
-0.003516	11.600000	3.680000
-0.003512	10.800000	3.520000
-0.003508	10.000000	3.360000
-0.003504	9.600000	3.120000
-0.003500	8.800000	2.880000
-0.003496	8.000000	2.720000
-0.003492	7.200000	2.480000
-0.003488	6.400000	2.240000
-0.003484	5.600000	2.000000
-0.003480	4.800000	1.840000
-0.003476	4.000000	1.600000
-0.003472	3.600000	1.360000
-0.003468	2.400000	1.120000
-0.003464	2.000000	0.880000
-0.003460	1.200000	0.640000
-0.003456	0.400000	0.400000
-0.003452	-0.400000	0.160000
-0.003448	-1.200000	-0.080000
-0.003444	-2.000000	-0.320000
-0.003440	-2.400000	-0.560000
-0.003436	-3.200000	-0.880000
-0.003432	-4.000000	-1.040000
-0.003428	-4.800000	-1.280000
-0.003424	-5.600000	-1.520000
-0.003420	-6.400000	-1.760000
-0.003416	-7.200000	-2.000000
-0.003412	-8.000000	-2.160000
-0.003408	-8.800000	-2.400000
-0.003404	-9.600000	-2.560000
-0.003400	-10.000000	-2.800000
-0.003396	-10.800000	-2.960000
-0.003392	-11.600000	-3.120000
-0.003388	-12.400000	-3.360000
-0.003384	-13.200000	-3.520000
-0.003380	-14.000000	-3.680000
-0.003376	-14.400000	-3.840000
-0.003372	-15.200000	-4.000000
-0.003368	-16.000000	-4.160000
-0.003364	-16.800000	-4.320000
-0.003360	-17.600000	-4.480000
-0.003356	-18.400000	-4.640000
-0.003352	-19.200000	-4.800000
-0.003348	-19.600000	-4.960000
-0.003344	-20.400000	-5.120000
-0.003340	-21.200000	-5.280000
-0.003336	-22.400000	-5.440000
-0.003332	-22.800000	-5.600000
-0.003328	-23.600000	-5.680000
-0.003324	-24.400000	-5.920000
-0.003320	-25.200000	-6.080000
-0.003316	-25.600000	-6.240000
-0.003312	-26.400000	-6.320000
-0.003308	-27.200000	-6.560000
-0.003304	-28.000000	-6.720000
-0.003300	-28.800000	-6.880000
-0.003296	-29.200000	-6.960000
-0.003292	-28.400000	-6.880000
-0.003288	-27.600000	-6.720000
-0.003284	-26.800000	-6.640000
-0.003280	-26.000000	-6.480000
-0.003276	-25.200000	-6.320000
-0.003272	-24.400000	-6.240000
-0.003268	-23.600000	-6.080000
-0.003264	-23.200000	-6.000000
-0.003260	-22.400000	-5.840000
-0.003256	-21.600000	-5.760000
-0.003252	-20.800000	-5.600000
-0.003248	-20.000000	-5.440000
-0.003244	-19.200000	-5.360000
-0.003240	-18.400000	-5.200000
-0.003236	-18.000000	-5.040000
-0.003232	-17.200000	-4.880000
-0.003228	-16.400000	-4.800000
-0.003224	-15.600000	-4.640000
-0.003220	-14.800000	-4.480000
-0.003216	-14.000000	-4.240000
-0.003212	-13.200000	-4.080000
-0.003208	-12.800000	-3.920000
-0.003204	-12.000000	-3.760000
-0.003200	-11.200000	-3.600000
-0.003196	-10.400000	-3.360000
-0.003192	-9.600000	-3.120000
-0.003188	-8.800000	-2.960000
-0.003184	-8.000000	-2.720000
-0.003180	-7.200000	-2.480000
-0.003176	-6.400000	-2.240000
-0.003172	-6.000000	-2.080000
-0.003168	-5.200000	-1.840000
-0.003164	-4.400000	-1.600000
-0.003160	-3.600000	-1.360000
-0.003156	-2.800000	-1.120000
-0.003152	-2.000000	-0.880000
-0.003148	-1.200000	-0.640000
-0.003144	-0.400000	-0.400000
-0.003140	0.400000	-0.160000
-0.003136	1.200000	0.080000
-0.003132	1.600000	0.320000
-0.003128	2.400000	0.560000
-0.003124	3.200000	0.800000
-0.003120	4.000000	1.040000
-0.003116	4.800000	1.280000
-0.003112	5.600000	1.520000
-0.003108	6.400000	1.760000
-0.003104	6.800000	1.920000
-0.003100	7.600000	2.160000
-0.003096	8.400000	2.320000
-0.003092	9.200000	2.560000
-0.003088	10.000000	2.720000
-0.003084	10.800000	2.960000
-0.003080	11.600000	3.120000
-0.003076	12.400000	3.280000
-0.003072	13.200000	3.520000
-0.003068	13.600000	3.680000
-0.003064	14.400000	3.840000
-0.003060	15.200000	4.000000
-0.003056	16.000000	4.160000
-0.003052	16.800000	4.320000
-0.003048	17.600000	4.480000
-0.003044	18.000000	4.560000
-0.003040	18.800000	4.720000
-0.003036	19.600000	4.880000
-0.003032	20.400000	5.040000
-0.003028	21.200000	5.200000
-0.003024	22.000000	5.360000
-0.003020	22.800000	5.520000
-0.003016	23.600000	5.680000
-0.003012	24.000000	5.840000
-0.003008	24.800000	5.920000
-0.003004	25.600000	6.080000
-0.003000	26.400000	6.240000
-0.002996	26.800000	6.400000
-0.002992	28.000000	6.560000
-0.002988	28.400000	6.720000
-0.002984	28.800000	6.880000
-0.002980	28.400000	6.800000
-0.002976	27.600000	6.640000
-0.002972	26.800000	6.560000
-0.002968	26.000000	6.400000
-0.002964	25.200000	6.240000
-0.002960	24.400000	6.160000
-0.002956	24.000000	6.000000
-0.002952	23.200000	5.920000
-0.002948	22.400000	5.840000
-0.002944	21.600000	5.680000
-0.002940	20.800000	5.600000
-0.002936	20.000000	5.440000
-0.002932	19.200000	5.280000
-0.002928	18.400000	5.200000
-0.002924	17.600000	5.040000
-0.002920	17.200000	4.880000
-0.002916	16.400000	4.720000
-0.002912	15.600000	4.560000
-0.002908	14.800000	4.480000
-0.002904	14.000000	4.240000
-0.002900	13.200000	4.080000
-0.002896	12.400000	3.920000
-0.002892	12.000000	3.760000
-0.002888	11.200000	3.600000
-0.002884	10.400000	3.360000
-0.002880	9.600000	3.200000
-0.002876	8.800000	2.960000
-0.002872	8.000000	2.720000
-0.002868	7.200000	2.560000
-0.002864	6.400000	2.320000
-0.002860	5.600000	2.080000
-0.002856	5.200000	1.840000
-0.002852	4.400000	1.680000
-0.002848	3.600000	1.440000
-0.002844	2.800000	1.120000
-0.002840	2.000000	0.960000
-0.002836	1.200000	0.720000
-0.002832	0.800000	0.400000
-0.002828	0.000000	0.240000
-0.002824	-0.800000	0.000000
-0.002820	-1.600000	-0.320000
-0.002816	-2.400000	-0.480000
-0.002812	-3.200000	-0.800000
-0.002808	-4.000000	-1.040000
-0.002804	-4.800000	-1.200000
-0.002800	-5.600000	-1.440000
-0.002796	-6.400000	-1.680000
-0.002792	-6.800000	-1.920000
-0.002788	-7.600000	-2.080000
-0.002784	-8.400000	-2.320000
-0.002780	-9.200000	-2.560000
-0.002776	-10.000000	-2.720000
-0.002772	-10.800000	-2.880000
-0.002768	-11.600000	-3.120000
-0.002764	-12.400000	-3.280000
-0.002760	-12.800000	-3.440000
-0.002756	-13.600000	-3.680000
-0.002752	-14.400000	-3.840000
-0.002748	-15.200000	-4.000000
-0.002744	-16.000000	-4.160000
-0.002740	-16.800000	-4.320000
-0.002736	-17.600000	-4.480000
-0.002732	-18.000000	-4.640000
-0.002728	-18.800000	-4.800000
-0.002724	-19.600000	-4.880000
-0.002720	-20.400000	-5.040000
-0.002716	-21.200000	-5.200000
-0.002712	-22.000000	-5.360000
-0.002708	-22.800000	-5.520000
-0.002704	-23.200000	-5.680000
-0.002700	-24.000000	-5.840000
-0.002696	-24.800000	-6.000000
-0.002692	-25.600000	-6.160000
-0.002688	-26.400000	-6.320000
-0.002684	-27.200000	-6.480000
-0.002680	-28.000000	-6.640000
-0.002676	-28.800000	-6.880000
-0.002672	-29.200000	-6.960000
-0.002668	-28.800000	-6.880000
-0.002664	-28.000000	-6.800000
-0.002660	-27.200000	-6.640000
-0.002656	-26.400000	-6.480000
-0.002652	-25.600000	-6.400000
-0.002648	-24.800000	-6.240000
-0.002644	-24.000000	-6.160000
-0.002640	-23.200000	-6.080000
-0.002636	-22.800000	-5.920000
-0.002632	-22.000000	-5.760000
-0.002628	-20.800000	-5.600000
-0.002624	-20.000000	-5.520000
-0.002620	-19.200000	-5.360000
-0.002616	-18.800000	-5.280000
-0.002612	-18.000000	-5.120000
-0.002608	-17.200000	-4.960000
-0.002604	-16.400000	-4.800000
-0.002600	-15.600000	-4.640000
-0.002596	-15.200000	-4.560000
-0.002592	-14.400000	-4.320000
-0.002588	-13.600000	-4.160000
-0.002584	-12.800000	-4.000000
-0.002580	-12.000000	-3.760000
-0.002576	-11.200000	-3.600000
-0.002572	-10.400000	-3.440000
-0.002568	-9.600000	-3.200000
-0.002564	-8.800000	-2.960000
-0.002560	-8.000000	-2.800000
-0.002556	-7.600000	-2.560000
-0.002552	-6.800000	-2.320000
-0.002548	-6.000000	-2.080000
-0.002544	-5.200000	-1.920000
-0.002540	-4.400000	-1.680000
-0.002536	-4.000000	-1.440000
-0.002532	-2.800000	-1.200000
-0.002528	-2.000000	-0.960000
-0.002524	-1.200000	-0.720000
-0.002520	-0.400000	-0.400000
-0.002516	0.400000	-0.160000
-0.002512	0.800000	0.080000
-0.002508	1.600000	0.320000
-0.002504	2.400000	0.480000
-0.002500	3.200000	0.800000
-0.002496	4.000000	1.040000
-0.002492	4.800000	1.200000
-0.002488	5.200000	1.440000
-0.002484	6.000000	1.680000
-0.002480	6.800000	1.920000
-0.002476	7.600000	2.080000
-0.002472	8.400000	2.320000
-0.002468	9.200000	2.480000
-0.002464	10.000000	2.720000
-0.002460	10.400000	2.880000
-0.002456	11.200000	3.120000
-0.002452	12.000000	3.280000
-0.002448	12.800000	3.440000
-0.002444	13.600000	3.600000
-0.002440	14.400000	3.760000
-0.002436	15.200000	3.920000
-0.002432	16.000000	4.080000
-0.002428	16.400000	4.240000
-0.002424	17.200000	4.400000
-0.002420	18.000000	4.560000
-0.002416	18.800000	4.720000
-0.002412	19.600000	4.880000
-0.002408	20.400000	5.040000
-0.002404	20.800000	5.200000
-0.002400	21.600000	5.280000
-0.002396	22.400000	5.440000
-0.002392	23.200000	5.600000
-0.002388	24.000000	5.760000
-0.002384	24.800000	5.920000
-0.002380	25.200000	6.000000
-0.002376	26.000000	6.160000
-0.002372	26.800000	6.320000
-0.002368	27.600000	6.560000
-0.002364	28.400000	6.720000
-0.002360	29.200000	6.880000
-0.002356	28.800000	6.800000
-0.002352	28.000000	6.720000
-0.002348	26.800000	6.560000
-0.002344	26.400000	6.400000
-0.002340	25.600000	6.240000
-0.002336	24.800000	6.160000
-0.002332	24.000000	6.080000
-0.002328	23.200000	5.920000
-0.002324	22.400000	5.840000
-0.002320	22.000000	5.760000
-0.002316	21.200000	5.600000
-0.002312	20.400000	5.440000
-0.002308	19.600000	5.360000
-0.002304	18.800000	5.200000
-0.002300	18.000000	5.120000
-0.002296	17.200000	4.960000
-0.002292	16.800000	4.800000
-0.002288	16.000000	4.640000
-0.002284	15.200000	4.480000
-0.002280	14.400000	4.320000
-0.002276	13.600000	4.160000
-0.002272	12.800000	4.000000
-0.002268	12.000000	3.840000
-0.002264	11.200000	3.600000
-0.002260	10.400000	3.440000
-0.002256	10.000000	3.200000
-0.002252	9.200000	3.040000
-0.002248	8.400000	2.800000
-0.002244	7.600000	2.560000
-0.002240	6.800000	2.400000
-0.002236	6.000000	2.160000
-0.002232	5.200000	1.920000
-0.002228	4.800000	1.680000
-0.002224	4.000000	1.440000
-0.002220	3.200000	1.200000
-0.002216	2.000000	0.960000
-0.002212	1.600000	0.720000
-0.002208	0.800000	0.480000
-0.002204	0.000000	0.240000
-0.002200	-0.800000	0.080000
-0.002196	-1.200000	-0.240000
-0.002192	-2.000000	-0.480000
-0.002188	-2.800000	-0.720000
-0.002184	-4.000000	-0.960000
-0.002180	-4.800000	-1.200000
-0.002176	-5.200000	-1.360000
-0.002172	-6.000000	-1.600000
-0.002168	-6.800000	-1.840000
-0.002164	-7.600000	-2.080000
-0.002160	-8.400000	-2.240000
-0.002156	-9.200000	-2.480000
-0.002152	-10.000000	-2.720000
-0.002148	-10.400000	-2.880000
-0.002144	-11.200000	-3.040000
-0.002140	-12.000000	-3.280000
-0.002136	-12.800000	-3.440000
-0.002132	-13.600000	-3.600000
-0.002128	-14.400000	-3.760000
-0.002124	-14.800000	-3.920000
-0.002120	-15.600000	-4.080000
-0.002116	-16.400000	-4.240000
-0.002112	-17.200000	-4.480000
-0.002108	-18.000000	-4.560000
-0.002104	-18.800000	-4.720000
-0.002100	-19.600000	-4.880000
-0.002096	-20.000000	-5.040000
-0.002092	-20.800000	-5.200000
-0.002088	-21.600000	-5.360000
-0.002084	-22.400000	-5.440000
-0.002080	-23.200000	-5.600000
-0.002076	-24.000000	-5.760000
-0.002072	-24.800000	-6.000000
-0.002068	-25.200000	-6.160000
-0.002064	-26.000000	-6.240000
-0.002060	-26.800000	-6.400000
-0.002056	-27.600000	-6.640000
-0.002052	-28.400000	-6.800000
-0.002048	-29.200000	-6.960000
-0.002044	-28.800000	-6.960000
-0.002040	-28.000000	-6.800000
-0.002036	-27.200000	-6.720000
-0.002032	-26.400000	-6.560000
-0.002028	-25.600000	-6.400000
-0.002024	-25.200000	-6.320000
-0.002020	-24.400000	-6.160000
-0.002016	-23.600000	-6.080000
-0.002012	-22.800000	-5.920000
-0.002008	-22.000000	-5.760000
-0.002004	-21.200000	-5.680000
-0.002000	-20.400000	-5.520000
-0.001996	-19.600000	-5.360000
-0.001992	-18.800000	-5.280000
-0.001988	-18.400000	-5.120000
-0.001984	-17.600000	-4.960000
-0.001980	-16.800000	-4.880000
-0.001976	-16.000000	-4.720000
-0.001972	-15.200000	-4.560000
-0.001968	-14.400000	-4.320000
-0.001964	-13.600000	-4.160000
-0.001960	-12.800000	-4.000000
-0.001956	-12.000000	-3.840000
-0.001952	-11.600000	-3.680000
-0.001948	-10.800000	-3.440000
-0.001944	-10.000000	-3.280000
-0.001940	-9.200000	-3.040000
-0.001936	-8.400000	-2.800000
-0.001932	-7.600000	-2.640000
-0.001928	-6.800000	-2.400000
-0.001924	-6.400000	-2.160000
-0.001920	-5.600000	-1.920000
-0.001916	-4.800000	-1.680000
-0.001912	-4.000000	-1.440000
-0.001908	-3.200000	-1.200000
-0.001904	-2.400000	-1.040000
-0.001900	-1.600000	-0.720000
-0.001896	-0.800000	-0.480000
-0.001892	0.000000	-0.240000
-0.001888	0.800000	0.000000
-0.001884	1.200000	0.240000
-0.001880	2.000000	0.480000
-0.001876	2.800000	0.720000
-0.001872	3.600000	0.960000
-0.001868	4.400000	1.120000
-0.001864	5.200000	1.360000
-0.001860	6.000000	1.600000
-0.001856	6.400000	1.840000
-0.001852	7.600000	2.000000
-0.001848	8.000000	2.240000
-0.001844	9.200000	2.480000
-0.001840	9.600000	2.640000
-0.001836	10.400000	2.880000
-0.001832	11.200000	3.040000
-0.001828	12.000000	3.200000
-0.001824	12.800000	3.360000
-0.001820	13.200000	3.600000
-0.001816	14.000000	3.760000
-0.001812	14.800000	3.920000
-0.001808	15.600000	4.080000
-0.001804	16.400000	4.240000
-0.001800	17.200000	4.400000
-0.001796	17.600000	4.560000
-0.001792	18.400000	4.720000
-0.001788	19.200000	4.800000
-0.001784	20.000000	4.960000
-0.001780	20.800000	5.120000
-0.001776	21.600000	5.280000
-0.001772	22.400000	5.440000
-0.001768	23.200000	5.520000
-0.001764	23.600000	5.680000
-0.001760	24.400000	5.840000
-0.001756	25.200000	6.000000
-0.001752	26.000000	6.160000
-0.001748	26.800000	6.320000
-0.001744	27.600000	6.480000
-0.001740	28.400000	6.720000
-0.001736	28.800000	6.800000
-0.001732	28.800000	6.800000
-0.001728	28.000000	6.720000
-0.001724	27.200000	6.560000
-0.001720	26.400000	6.480000
-0.001716	25.600000	6.320000
-0.001712	25.200000	6.240000
-0.001708	24.400000	6.080000
-0.001704	23.600000	6.000000
-0.001700	22.800000	5.920000
-0.001696	22.000000	5.760000
-0.001692	21.200000	5.600000
-0.001688	20.400000	5.520000
-0.001684	19.600000	5.360000
-0.001680	18.800000	5.200000
-0.001676	18.000000	5.120000
-0.001672	17.600000	4.960000
-0.001668	16.800000	4.800000
-0.001664	16.000000	4.640000
-0.001660	15.200000	4.560000
-0.001656	14.400000	4.400000
-0.001652	13.600000	4.160000
-0.001648	12.800000	4.000000
-0.001644	12.400000	3.840000
-0.001640	11.600000	3.680000
-0.001636	10.800000	3.440000
-0.001632	10.000000	3.280000
-0.001628	9.200000	3.120000
-0.001624	8.400000	2.880000
-0.001620	7.600000	2.640000
-0.001616	7.200000	2.400000
-0.001612	6.000000	2.240000
-0.001608	5.600000	2.000000
-0.001604	4.800000	1.760000
-0.001600	4.000000	1.520000
-0.001596	3.200000	1.280000
-0.001592	2.400000	1.040000
-0.001588	1.600000	0.800000
-0.001584	1.200000	0.560000
-0.001580	0.400000	0.320000
-0.001576	-0.400000	0.080000
-0.001572	-1.200000	-0.160000
-0.001568	-2.000000	-0.400000
-0.001564	-2.800000	-0.640000
-0.001560	-3.600000	-0.880000
-0.001556	-4.400000	-1.120000
-0.001552	-5.200000	-1.360000
-0.001548	-6.000000	-1.600000
-0.001544	-6.400000	-1.760000
-0.001540	-7.200000	-2.000000
-0.001536	-8.000000	-2.240000
-0.001532	-8.800000	-2.400000
-0.001528	-9.600000	-2.640000
-0.001524	-10.400000	-2.800000
-0.001520	-11.200000	-3.040000
-0.001516	-12.000000	-3.200000
-0.001512	-12.400000	-3.360000
-0.001508	-13.200000	-3.520000
-0.001504	-14.000000	-3.760000
-0.001500	-14.800000	-3.920000
-0.001496	-15.600000	-4.080000
-0.001492	-16.400000	-4.240000
-0.001488	-17.200000	-4.400000
-0.001484	-18.000000	-4.560000
-0.001480	-18.400000	-4.720000
-0.001476	-19.200000	-4.880000
-0.001472	-20.000000	-4.960000
-0.001468	-20.800000	-5.120000
-0.001464	-21.600000	-5.280000
-0.001460	-22.400000	-5.440000
-0.001456	-22.800000	-5.600000
-0.001452	-23.600000	-5.760000
-0.001448	-24.400000	-5.920000
-0.001444	-25.200000	-6.080000
-0.001440	-26.000000	-6.240000
-0.001436	-26.800000	-6.400000
-0.001432	-27.200000	-6.560000
-0.001428	-28.400000	-6.720000
-0.001424	-28.800000	-6.960000
-0.001420	-29.200000	-6.960000
-0.001416	-28.400000	-6.880000
-0.001412	-27.600000	-6.720000
-0.001408	-26.800000	-6.640000
-0.001404	-26.000000	-6.480000
-0.001400	-25.200000	-6.320000
-0.001396	-24.400000	-6.160000
-0.001392	-23.600000	-6.080000
-0.001388	-22.800000	-5.920000
-0.001384	-22.000000	-5.840000
-0.001380	-21.600000	-5.680000
-0.001376	-20.800000	-5.600000
-0.001372	-20.000000	-5.440000
-0.001368	-19.200000	-5.360000
-0.001364	-18.400000	-5.200000
-0.001360	-17.600000	-5.040000
-0.001356	-16.800000	-4.880000
-0.001352	-16.000000	-4.720000
-0.001348	-15.200000	-4.560000
-0.001344	-14.400000	-4.400000
-0.001340	-14.000000	-4.240000
-0.001336	-13.200000	-4.080000
-0.001332	-12.400000	-3.920000
-0.001328	-11.600000	-3.680000
-0.001324	-10.800000	-3.520000
-0.001320	-10.400000	-3.360000
-0.001316	-9.600000	-3.120000
-0.001312	-8.800000	-2.880000
-0.001308	-8.000000	-2.720000
-0.001304	-7.200000	-2.480000
-0.001300	-6.400000	-2.240000
-0.001296	-5.600000	-2.000000
-0.001292	-4.800000	-1.760000
-0.001288	-4.000000	-1.520000
-0.001284	-3.200000	-1.280000
-0.001280	-2.400000	-1.040000
-0.001276	-1.600000	-0.800000
-0.001272	-0.800000	-0.560000
-0.001268	0.000000	-0.320000
-0.001264	0.400000	-0.080000
-0.001260	1.200000	0.160000
-0.001256	2.000000	0.400000
-0.001252	2.800000	0.640000
-0.001248	3.600000	0.880000
-0.001244	4.400000	1.120000
-0.001240	5.200000	1.360000
-0.001236	5.600000	1.600000
-0.001232	6.400000	1.760000
-0.001228	7.200000	2.000000
-0.001224	8.000000	2.240000
-0.001220	8.800000	2.400000
-0.001216	9.600000	2.640000
-0.001212	10.400000	2.800000
-0.001208	10.800000	2.960000
-0.001204	11.600000	3.200000
-0.001200	12.400000	3.360000
-0.001196	13.200000	3.520000
-0.001192	14.000000	3.680000
-0.001188	14.800000	3.840000
-0.001184	15.600000	4.000000
-0.001180	16.400000	4.160000
-0.001176	17.200000	4.320000
-0.001172	17.600000	4.480000
-0.001168	18.400000	4.640000
-0.001164	19.200000	4.800000
-0.001160	20.000000	4.960000
-0.001156	20.400000	5.120000
-0.001152	21.200000	5.200000
-0.001148	22.000000	5.360000
-0.001144	22.800000	5.520000
-0.001140	23.600000	5.680000
-0.001136	24.400000	5.840000
-0.001132	25.200000	6.000000
-0.001128	25.600000	6.080000
-0.001124	26.400000	6.240000
-0.001120	27.200000	6.480000
-0.001116	28.000000	6.640000
-0.001112	28.800000	6.800000
-0.001108	28.800000	6.880000
-0.001104	28.400000	6.720000
-0.001100	27.600000	6.640000
-0.001096	26.800000	6.480000
-0.001092	26.000000	6.320000
-0.001088	25.200000	6.240000
-0.001084	24.400000	6.160000
-0.001080	23.600000	6.000000
-0.001076	22.800000	5.920000
-0.001072	22.000000	5.760000
-0.001068	21.600000	5.680000
-0.001064	20.800000	5.520000
-0.001060	20.000000	5.360000
-0.001056	19.200000	5.280000
-0.001052	18.400000	5.120000
-0.001048	17.600000	5.040000
-0.001044	16.800000	4.880000
-0.001040	16.400000	4.720000
-0.001036	15.600000	4.560000
-0.001032	14.400000	4.400000
-0.001028	14.000000	4.240000
-0.001024	13.200000	4.080000
-0.001020	12.400000	3.920000
-0.001016	11.600000	3.680000
-0.001012	10.800000	3.520000
-0.001008	10.000000	3.360000
-0.001004	9.600000	3.120000
-0.001000	8.800000	2.960000
-0.000996	8.000000	2.720000
-0.000992	7.200000	2.480000
-0.000988	6.400000	2.240000
-0.000984	5.600000	2.000000
-0.000980	4.800000	1.840000
-0.000976	4.000000	1.600000
-0.000972	3.600000	1.360000
-0.000968	2.800000	1.120000
-0.000964	2.000000	0.880000
-0.000960	1.200000	0.640000
-0.000956	0.400000	0.400000
-0.000952	-0.400000	0.160000
-0.000948	-1.200000	-0.080000
-0.000944	-1.600000	-0.320000
-0.000940	-2.400000	-0.560000
-0.000936	-3.600000	-0.880000
-0.000932	-4.400000	-1.040000
-0.000928	-4.800000	-1.280000
-0.000924	-5.600000	-1.520000
-0.000920	-6.400000	-1.760000
-0.000916	-7.200000	-2.000000
-0.000912	-8.000000	-2.160000
-0.000908	-8.400000	-2.400000
-0.000904	-9.600000	-2.560000
-0.000900	-10.000000	-2.800000
-0.000896	-10.800000	-2.960000
-0.000892	-11.600000	-3.120000
-0.000888	-12.400000	-3.360000
-0.000884	-13.200000	-3.520000
-0.000880	-14.000000	-3.680000
-0.000876	-14.400000	-3.840000
-0.000872	-15.200000	-4.000000
-0.000868	-16.000000	-4.160000
-0.000864	-16.800000	-4.320000
-0.000860	-17.600000	-4.480000
-0.000856	-18.400000	-4.640000
-0.000852	-19.200000	-4.800000
-0.000848	-20.000000	-4.960000
-0.000844	-20.400000	-5.120000
-0.000840	-21.200000	-5.280000
-0.000836	-22.000000	-5.440000
-0.000832	-22.800000	-5.600000
-0.000828	-23.600000	-5.680000
-0.000824	-24.400000	-5.920000
-0.000820	-24.800000	-6.080000
-0.000816	-25.600000	-6.240000
-0.000812	-26.400000	-6.320000
-0.000808	-27.200000	-6.560000
-0.000804	-28.000000	-6.720000
-0.000800	-28.800000	-6.880000
-0.000796	-29.200000	-6.960000
-0.000792	-28.400000	-6.880000
-0.000788	-27.600000	-6.720000
-0.000784	-26.800000	-6.640000
-0.000780	-26.000000	-6.480000
-0.000776	-25.200000	-6.320000
-0.000772	-24.800000	-6.240000
-0.000768	-24.000000	-6.080000
-0.000764	-23.200000	-6.000000
-0.000760	-22.400000	-5.840000
-0.000756	-21.600000	-5.760000
-0.000752	-20.800000	-5.600000
-0.000748	-20.000000	-5.440000
-0.000744	-19.200000	-5.360000
-0.000740	-18.400000	-5.200000
-0.000736	-18.000000	-5.040000
-0.000732	-17.200000	-4.880000
-0.000728	-16.400000	-4.800000
-0.000724	-15.600000	-4.640000
-0.000720	-14.800000	-4.480000
-0.000716	-14.000000	-4.240000
-0.000712	-13.200000	-4.080000
-0.000708	-12.800000	-3.920000
-0.000704	-12.000000	-3.760000
-0.000700	-11.200000	-3.600000
-0.000696	-10.400000	-3.360000
-0.000692	-9.600000	-3.120000
-0.000688	-8.800000	-2.960000
-0.000684	-8.000000	-2.720000
-0.000680	-7.200000	-2.480000
-0.000676	-6.400000	-2.240000
-0.000672	-6.000000	-2.080000
-0.000668	-5.200000	-1.840000
-0.000664	-4.400000	-1.600000
-0.000660	-3.600000	-1.360000
-0.000656	-2.800000	-1.120000
-0.000652	-2.000000	-0.880000
-0.000648	-1.200000	-0.640000
-0.000644	-0.400000	-0.400000
-0.000640	0.400000	-0.160000
-0.000636	1.200000	0.080000
-0.000632	1.600000	0.320000
-0.000628	2.400000	0.560000
-0.000624	3.200000	0.800000
-0.000620	4.000000	1.040000
-0.000616	4.800000	1.280000
-0.000612	5.600000	1.520000
-0.000608	6.400000	1.760000
-0.000604	7.200000	1.920000
-0.000600	7.600000	2.160000
-0.000596	8.400000	2.320000
-0.000592	9.200000	2.560000
-0.000588	10.000000	2.720000
-0.000584	10.800000	2.960000
-0.000580	11.600000	3.120000
-0.000576	12.400000	3.280000
-0.000572	13.200000	3.520000
-0.000568	13.600000	3.680000
-0.000564	14.400000	3.840000
-0.000560	15.200000	4.000000
-0.000556	16.000000	4.160000
-0.000552	16.800000	4.320000
-0.000548	17.600000	4.480000
-0.000544	18.000000	4.560000
-0.000540	18.800000	4.720000
-0.000536	19.600000	4.880000
-0.000532	20.400000	5.040000
-0.000528	21.200000	5.200000
-0.000524	22.000000	5.360000
-0.000520	22.800000	5.520000
-0.000516	23.600000	5.680000
-0.000512	24.000000	5.840000
-0.000508	24.800000	5.920000
-0.000504	25.600000	6.080000
-0.000500	26.400000	6.240000
-0.000496	26.800000	6.400000
-0.000492	28.000000	6.560000
-0.000488	28.400000	6.720000
-0.000484	28.800000	6.880000
-0.000480	28.400000	6.800000
-0.000476	27.600000	6.640000
-0.000472	26.800000	6.560000
-0.000468	26.000000	6.400000
-0.000464	25.200000	6.240000
-0.000460	24.800000	6.160000
-0.000456	24.000000	6.000000
-0.000452	23.200000	5.920000
-0.000448	22.400000	5.840000
-0.000444	21.600000	5.680000
-0.000440	20.800000	5.600000
-0.000436	20.000000	5.440000
-0.000432	19.200000	5.280000
-0.000428	18.400000	5.200000
-0.000424	18.000000	5.040000
-0.000420	17.200000	4.880000
-0.000416	16.400000	4.720000
-0.000412	15.600000	4.560000
-0.000408	14.800000	4.480000
-0.000404	14.000000	4.320000
-0.000400	13.200000	4.080000
-0.000396	12.400000	3.920000
-0.000392	12.000000	3.760000
-0.000388	11.200000	3.600000
-0.000384	10.400000	3.360000
-0.000380	9.600000	3.200000
-0.000376	8.800000	2.960000
-0.000372	8.000000	2.720000
-0.000368	7.200000	2.560000
-0.000364	6.400000	2.320000
-0.000360	5.600000	2.080000
-0.000356	5.200000	1.840000
-0.000352	4.400000	1.680000
-0.000348	3.600000	1.440000
-0.000344	2.800000	1.120000
-0.000340	2.000000	0.960000
-0.000336	1.200000	0.720000
-0.000332	0.800000	0.400000
-0.000328	0.000000	0.240000
-0.000324	-0.800000	0.000000
-0.000320	-1.600000	-0.320000
-0.000316	-2.400000	-0.480000
-0.000312	-3.200000	-0.800000
-0.000308	-4.000000	-1.040000
-0.000304	-4.800000	-1.200000
-0.000300	-5.600000	-1.440000
-0.000296	-6.400000	-1.680000
-0.000292	-6.800000	-1.920000
-0.000288	-7.600000	-2.080000
-0.000284	-8.400000	-2.320000
-0.000280	-9.200000	-2.560000
-0.000276	-10.000000	-2.720000
-0.000272	-10.800000	-2.880000
-0.000268	-11.600000	-3.120000
-0.000264	-12.400000	-3.280000
-0.000260	-12.800000	-3.440000
-0.000256	-13.600000	-3.600000
-0.000252	-14.400000	-3.840000
-0.000248	-15.200000	-4.000000
-0.000244	-16.000000	-4.160000
-0.000240	-16.800000	-4.320000
-0.000236	-17.600000	-4.480000
-0.000232	-18.400000	-4.640000
-0.000228	-18.800000	-4.800000
-0.000224	-19.600000	-4.880000
-0.000220	-20.400000	-5.040000
-0.000216	-21.200000	-5.200000
-0.000212	-22.000000	-5.360000
-0.000208	-22.800000	-5.520000
-0.000204	-23.200000	-5.680000
-0.000200	-24.000000	-5.840000
-0.000196	-24.800000	-6.000000
-0.000192	-25.600000	-6.160000
-0.000188	-26.400000	-6.320000
-0.000184	-27.200000	-6.480000
-0.000180	-28.000000	-6.640000
-0.000176	-28.800000	-6.880000
-0.000172	-29.200000	-6.960000
-0.000168	-28.400000	-6.880000
-0.000164	-28.000000	-6.800000
-0.000160	-26.800000	-6.640000
-0.000156	-26.400000	-6.480000
-0.000152	-25.600000	-6.400000
-0.000148	-24.800000	-6.240000
-0.000144	-24.000000	-6.160000
-0.000140	-23.200000	-6.080000
-0.000136	-22.800000	-5.920000
-0.000132	-22.000000	-5.760000
-0.000128	-20.800000	-5.600000
-0.000124	-20.000000	-5.520000
-0.000120	-19.600000	-5.360000
-0.000116	-18.800000	-5.280000
-0.000112	-18.000000	-5.120000
-0.000108	-17.200000	-4.960000
-0.000104	-16.400000	-4.800000
-0.000100	-16.000000	-4.640000
-9.600000E-5	-14.800000	-4.560000
-9.200000E-5	-14.400000	-4.320000
-8.800000E-5	-13.600000	-4.160000
-8.400000E-5	-12.800000	-4.000000
-8.000000E-5	-12.000000	-3.760000
-7.600000E-5	-11.200000	-3.600000
-7.200000E-5	-10.400000	-3.360000
-6.800000E-5	-10.000000	-3.200000
-6.400000E-5	-8.800000	-2.960000
-6.000000E-5	-8.400000	-2.800000
-5.600000E-5	-7.600000	-2.560000
-5.200000E-5	-6.800000	-2.320000
-4.800000E-5	-6.000000	-2.080000
-4.400000E-5	-5.200000	-1.920000
-4.000000E-5	-4.400000	-1.680000
-3.600000E-5	-4.000000	-1.440000
-3.200000E-5	-2.800000	-1.200000
-2.800000E-5	-2.000000	-0.960000
-2.400000E-5	-1.200000	-0.720000
-2.000000E-5	-0.400000	-0.400000
-1.600000E-5	0.000000	-0.240000
-1.200000E-5	0.800000	0.080000
-8.000000E-6	1.600000	0.320000
-4.000000E-6	2.400000	0.480000
0.000000	3.200000	0.800000
4.000000E-6	4.000000	1.040000
8.000000E-6	4.800000	1.200000
1.200000E-5	5.200000	1.440000
1.600000E-5	6.000000	1.680000
2.000000E-5	6.800000	1.920000
2.400000E-5	7.600000	2.080000
2.800000E-5	8.400000	2.320000
3.200000E-5	9.200000	2.480000
3.600000E-5	10.000000	2.720000
4.000000E-5	10.400000	2.880000
4.400000E-5	11.200000	3.120000
4.800000E-5	12.000000	3.280000
5.200000E-5	12.800000	3.440000
5.600000E-5	13.600000	3.600000
6.000000E-5	14.400000	3.760000
6.400000E-5	15.200000	3.920000
6.800000E-5	16.000000	4.080000
7.200000E-5	16.800000	4.240000
7.600000E-5	17.200000	4.400000
8.000000E-5	18.000000	4.560000
8.400000E-5	18.800000	4.720000
8.800000E-5	19.600000	4.880000
9.200000E-5	20.400000	5.040000
9.600000E-5	20.800000	5.200000
1.000000E-4	21.600000	5.280000
0.000104	22.400000	5.440000
0.000108	23.200000	5.600000
0.000112	24.000000	5.760000
0.000116	24.800000	5.920000
0.000120	25.200000	6.000000
0.000124	26.000000	6.160000
0.000128	26.800000	6.320000
0.000132	27.600000	6.560000
0.000136	28.400000	6.720000
0.000140	28.800000	6.880000
0.000144	28.800000	6.800000
0.000148	28.000000	6.720000
0.000152	27.200000	6.560000
0.000156	26.000000	6.400000
0.000160	25.600000	6.240000
0.000164	24.800000	6.160000
0.000168	24.000000	6.080000
0.000172	23.200000	5.920000
0.000176	22.400000	5.840000
0.000180	22.000000	5.760000
0.000184	21.200000	5.600000
0.000188	20.400000	5.440000
0.000192	19.600000	5.360000
0.000196	18.800000	5.200000
0.000200	18.000000	5.120000
0.000204	17.200000	4.960000
0.000208	16.400000	4.800000
0.000212	16.000000	4.640000
0.000216	15.200000	4.480000
0.000220	14.000000	4.320000
0.000224	13.600000	4.160000
0.000228	12.800000	4.000000
0.000232	12.000000	3.760000
0.000236	11.200000	3.600000
0.000240	10.400000	3.440000
0.000244	9.600000	3.200000
0.000248	9.200000	3.040000
0.000252	8.400000	2.800000
0.000256	7.600000	2.560000
0.000260	6.800000	2.400000
0.000264	6.000000	2.160000
0.000268	5.200000	1.920000
0.000272	4.400000	1.680000
0.000276	4.000000	1.440000
0.000280	3.200000	1.200000
0.000284	2.000000	0.960000
0.000288	1.600000	0.720000
0.000292	0.800000	0.480000
0.000296	0.000000	0.240000
0.000300	-0.800000	0.000000
0.000304	-1.600000	-0.240000
0.000308	-2.000000	-0.480000
0.000312	-2.800000	-0.720000
0.000316	-4.000000	-0.960000
0.000320	-4.800000	-1.200000
0.000324	-5.200000	-1.360000
0.000328	-6.000000	-1.600000
0.000332	-6.800000	-1.840000
0.000336	-7.600000	-2.080000
0.000340	-8.000000	-2.240000
0.000344	-9.200000	-2.480000
0.000348	-10.000000	-2.720000
0.000352	-10.400000	-2.880000
0.000356	-11.200000	-3.040000
0.000360	-12.000000	-3.280000
0.000364	-12.800000	-3.440000
0.000368	-13.600000	-3.600000
0.000372	-14.400000	-3.760000
0.000376	-14.800000	-3.920000
0.000380	-15.600000	-4.080000
0.000384	-16.400000	-4.240000
0.000388	-17.200000	-4.480000
0.000392	-18.000000	-4.560000
0.000396	-18.800000	-4.720000
0.000400	-19.600000	-4.880000
0.000404	-20.000000	-5.040000
0.000408	-20.800000	-5.200000
0.000412	-22.000000	-5.360000
0.000416	-22.400000	-5.520000
0.000420	-23.200000	-5.680000
0.000424	-24.000000	-5.760000
0.000428	-24.800000	-6.000000
0.000432	-25.200000	-6.160000
0.000436	-26.000000	-6.240000
0.000440	-26.800000	-6.480000
0.000444	-27.600000	-6.640000
0.000448	-28.400000	-6.800000
0.000452	-29.200000	-6.960000
0.000456	-28.800000	-6.960000
0.000460	-28.000000	-6.800000
0.000464	-27.200000	-6.720000
0.000468	-26.400000	-6.560000
0.000472	-26.000000	-6.400000
0.000476	-25.200000	-6.320000
0.000480	-24.400000	-6.160000
0.000484	-23.600000	-6.080000
0.000488	-22.800000	-5.920000
0.000492	-22.000000	-5.760000
0.000496	-21.200000	-5.680000
0.000500	-20.400000	-5.520000
0.000504	-19.600000	-5.440000
0.000508	-18.800000	-5.280000
0.000512	-18.400000	-5.120000
0.000516	-17.600000	-4.960000
0.000520	-16.800000	-4.880000
0.000524	-16.000000	-4.720000
0.000528	-15.200000	-4.560000
0.000532	-14.400000	-4.400000
0.000536	-13.600000	-4.160000
0.000540	-12.800000	-4.000000
0.000544	-12.000000	-3.840000
0.000548	-11.600000	-3.680000
0.000552	-10.800000	-3.440000
0.000556	-10.000000	-3.280000
0.000560	-9.200000	-3.040000
0.000564	-8.400000	-2.800000
0.000568	-7.600000	-2.640000
0.000572	-6.800000	-2.400000
0.000576	-6.400000	-2.160000
0.000580	-5.600000	-1.920000
0.000584	-4.800000	-1.760000
0.000588	-4.000000	-1.440000
0.000592	-3.200000	-1.200000
0.000596	-2.000000	-1.040000
0.000600	-1.600000	-0.720000
0.000604	-0.800000	-0.480000
0.000608	0.000000	-0.240000
0.000612	0.800000	0.000000
0.000616	1.200000	0.240000
0.000620	2.000000	0.480000
0.000624	2.800000	0.720000
0.000628	3.600000	0.960000
0.000632	4.400000	1.120000
0.000636	5.200000	1.360000
0.000640	6.000000	1.600000
0.000644	6.400000	1.840000
0.000648	7.600000	2.000000
0.000652	8.000000	2.240000
0.000656	9.200000	2.480000
0.000660	9.600000	2.640000
0.000664	10.400000	2.880000
0.000668	11.200000	3.040000
0.000672	12.000000	3.200000
0.000676	12.800000	3.360000
0.000680	13.200000	3.600000
0.000684	14.000000	3.760000
0.000688	14.800000	3.920000
0.000692	15.600000	4.080000
0.000696	16.400000	4.240000
0.000700	17.200000	4.400000
0.000704	17.600000	4.560000
0.000708	18.400000	4.640000
0.000712	19.200000	4.800000
0.000716	20.000000	4.960000
0.000720	20.800000	5.120000
0.000724	21.600000	5.280000
0.000728	22.400000	5.440000
0.000732	23.200000	5.520000
0.000736	23.600000	5.680000
0.000740	24.400000	5.840000
0.000744	25.200000	6.000000
0.000748	26.000000	6.160000
0.000752	26.800000	6.320000
0.000756	27.600000	6.480000
0.000760	28.400000	6.720000
0.000764	28.800000	6.800000
0.000768	28.800000	6.800000
0.000772	28.000000	6.720000
0.000776	27.200000	6.560000
0.000780	26.400000	6.480000
0.000784	25.600000	6.320000
0.000788	25.200000	6.240000
0.000792	24.400000	6.080000
0.000796	23.600000	5.920000
0.000800	22.800000	5.920000
0.000804	22.000000	5.760000
0.000808	21.200000	5.600000
0.000812	20.400000	5.520000
0.000816	19.600000	5.360000
0.000820	19.200000	5.200000
0.000824	18.000000	5.120000
0.000828	17.600000	4.960000
0.000832	16.800000	4.800000
0.000836	16.000000	4.640000
0.000840	15.200000	4.560000
0.000844	14.400000	4.400000
0.000848	13.600000	4.160000
0.000852	13.200000	4.000000
0.000856	12.400000	3.840000
0.000860	11.600000	3.680000
0.000864	10.800000	3.440000
0.000868	10.000000	3.280000
0.000872	9.200000	3.120000
0.000876	8.400000	2.880000
0.000880	7.600000	2.640000
0.000884	6.800000	2.400000
0.000888	6.400000	2.240000
0.000892	5.600000	2.000000
0.000896	4.800000	1.760000
0.000900	4.000000	1.520000
0.000904	3.200000	1.280000
0.000908	2.400000	1.040000
0.000912	1.600000	0.800000
0.000916	0.800000	0.560000
0.000920	0.400000	0.320000
0.000924	-0.400000	0.080000
0.000928	-1.200000	-0.160000
0.000932	-2.000000	-0.400000
0.000936	-2.800000	-0.640000
0.000940	-3.600000	-0.880000
0.000944	-4.400000	-1.120000
0.000948	-5.200000	-1.360000
0.000952	-6.000000	-1.600000
0.000956	-6.400000	-1.760000
0.000960	-7.200000	-2.000000
0.000964	-8.000000	-2.240000
0.000968	-8.800000	-2.400000
0.000972	-9.600000	-2.640000
0.000976	-10.400000	-2.800000
0.000980	-11.200000	-3.040000
0.000984	-12.000000	-3.200000
0.000988	-12.400000	-3.360000
0.000992	-13.200000	-3.520000
0.000996	-14.000000	-3.760000
0.001000	-14.800000	-3.920000
0.001004	-15.600000	-4.080000
0.001008	-16.400000	-4.240000
0.001012	-17.200000	-4.400000
0.001016	-18.000000	-4.560000
0.001020	-18.400000	-4.720000
0.001024	-19.200000	-4.800000
0.001028	-20.000000	-4.960000
0.001032	-20.800000	-5.120000
0.001036	-21.600000	-5.280000
0.001040	-22.400000	-5.440000
0.001044	-22.800000	-5.600000
0.001048	-23.600000	-5.760000
0.001052	-24.400000	-5.920000
0.001056	-25.200000	-6.080000
0.001060	-26.000000	-6.240000
0.001064	-26.800000	-6.400000
0.001068	-27.600000	-6.560000
0.001072	-28.400000	-6.720000
0.001076	-29.200000	-6.960000
0.001080	-29.200000	-6.960000
0.001084	-28.400000	-6.880000
0.001088	-27.600000	-6.720000
0.001092	-26.800000	-6.640000
0.001096	-26.000000	-6.480000
0.001100	-25.200000	-6.320000
0.001104	-24.400000	-6.240000
0.001108	-23.600000	-6.080000
0.001112	-22.800000	-6.000000
0.001116	-22.000000	-5.840000
0.001120	-21.200000	-5.680000
0.001124	-20.400000	-5.600000
0.001128	-20.000000	-5.440000
0.001132	-19.200000	-5.360000
0.001136	-18.400000	-5.200000
0.001140	-17.600000	-5.040000
0.001144	-16.800000	-4.880000
0.001148	-16.000000	-4.720000
0.001152	-15.200000	-4.560000
0.001156	-14.400000	-4.400000
0.001160	-14.000000	-4.240000
0.001164	-13.200000	-4.080000
0.001168	-12.400000	-3.920000
0.001172	-11.600000	-3.680000
0.001176	-10.800000	-3.520000
0.001180	-10.400000	-3.360000
0.001184	-9.600000	-3.120000
0.001188	-8.800000	-2.880000
0.001192	-7.600000	-2.720000
0.001196	-7.200000	-2.480000
0.001200	-6.400000	-2.240000
0.001204	-5.600000	-2.000000
0.001208	-4.800000	-1.760000
0.001212	-4.000000	-1.520000
0.001216	-3.200000	-1.280000
0.001220	-2.400000	-1.040000
0.001224	-1.600000	-0.800000
0.001228	-0.800000	-0.560000
0.001232	0.000000	-0.320000
0.001236	0.400000	-0.080000
0.001240	1.200000	0.160000
0.001244	2.000000	0.400000
0.001248	2.800000	0.640000
0.001252	3.600000	0.880000
0.001256	4.400000	1.120000
0.001260	4.800000	1.360000
0.001264	5.600000	1.600000
0.001268	6.400000	1.760000
0.001272	7.200000	2.000000
0.001276	8.000000	2.240000
0.001280	8.800000	2.400000
0.001284	9.600000	2.640000
0.001288	10.000000	2.800000
0.001292	10.800000	2.960000
0.001296	11.600000	3.200000
0.001300	12.400000	3.360000
0.001304	13.200000	3.520000
0.001308	14.000000	3.680000
0.001312	14.800000	3.840000
0.001316	15.600000	4.000000
0.001320	16.400000	4.160000
0.001324	16.800000	4.400000
0.001328	17.600000	4.480000
0.001332	18.400000	4.640000
0.001336	19.200000	4.800000
0.001340	20.000000	4.960000
0.001344	20.400000	5.120000
0.001348	21.200000	5.200000
0.001352	22.000000	5.360000
0.001356	22.800000	5.520000
0.001360	23.600000	5.680000
0.001364	24.400000	5.840000
0.001368	25.200000	6.000000
0.001372	25.600000	6.160000
0.001376	26.400000	6.320000
0.001380	27.200000	6.480000
0.001384	28.000000	6.640000
0.001388	28.800000	6.800000
0.001392	28.800000	6.880000
0.001396	28.400000	6.720000
0.001400	27.600000	6.640000
0.001404	26.800000	6.480000
0.001408	26.000000	6.320000
0.001412	25.200000	6.240000
0.001416	24.400000	6.080000
0.001420	23.600000	6.000000
0.001424	22.800000	5.920000
0.001428	22.000000	5.760000
0.001432	21.600000	5.680000
0.001436	20.800000	5.520000
0.001440	20.000000	5.360000
0.001444	19.200000	5.280000
0.001448	18.400000	5.120000
0.001452	17.600000	5.040000
0.001456	16.800000	4.880000
0.001460	16.000000	4.720000
0.001464	15.600000	4.560000
0.001468	14.400000	4.400000
0.001472	14.000000	4.240000
0.001476	13.200000	4.080000
0.001480	12.400000	3.920000
0.001484	11.600000	3.680000
0.001488	10.800000	3.520000
0.001492	10.000000	3.360000
0.001496	9.600000	3.120000
0.001500	8.800000	2.960000
0.001504	8.000000	2.720000
0.001508	7.200000	2.480000
0.001512	6.400000	2.240000
0.001516	5.600000	2.000000
0.001520	4.800000	1.840000
0.001524	4.000000	1.600000
0.001528	3.600000	1.360000
0.001532	2.800000	1.120000
0.001536	2.000000	0.880000
0.001540	1.200000	0.640000
0.001544	0.400000	0.400000
0.001548	-0.400000	0.160000
0.001552	-1.200000	-0.080000
0.001556	-1.600000	-0.320000
0.001560	-2.400000	-0.560000
0.001564	-3.600000	-0.880000
0.001568	-4.400000	-1.040000
0.001572	-4.800000	-1.280000
0.001576	-5.600000	-1.520000
0.001580	-6.400000	-1.760000
0.001584	-7.200000	-2.000000
0.001588	-8.000000	-2.160000
0.001592	-8.800000	-2.400000
0.001596	-9.600000	-2.560000
0.001600	-10.400000	-2.800000
0.001604	-10.800000	-2.960000
0.001608	-11.600000	-3.200000
0.001612	-12.400000	-3.360000
0.001616	-13.200000	-3.520000
0.001620	-14.000000	-3.680000
0.001624	-14.400000	-3.840000
0.001628	-15.200000	-4.000000
0.001632	-16.000000	-4.160000
0.001636	-16.800000	-4.320000
0.001640	-17.600000	-4.480000
0.001644	-18.400000	-4.640000
0.001648	-19.200000	-4.800000
0.001652	-20.000000	-4.960000
0.001656	-20.400000	-5.120000
0.001660	-21.600000	-5.280000
0.001664	-22.000000	-5.440000
0.001668	-22.800000	-5.600000
0.001672	-23.600000	-5.680000
0.001676	-24.400000	-5.920000
0.001680	-25.200000	-6.080000
0.001684	-25.600000	-6.240000
0.001688	-26.400000	-6.320000
0.001692	-27.200000	-6.560000
0.001696	-28.000000	-6.720000
0.001700	-28.800000	-6.880000
0.001704	-29.200000	-6.960000
0.001708	-28.400000	-6.880000
0.001712	-27.600000	-6.720000
0.001716	-26.800000	-6.640000
0.001720	-26.000000	-6.480000
0.001724	-25.200000	-6.320000
0.001728	-24.400000	-6.240000
0.001732	-24.000000	-6.080000
0.001736	-23.200000	-6.000000
0.001740	-22.400000	-5.840000
0.001744	-21.600000	-5.760000
0.001748	-20.800000	-5.600000
0.001752	-20.000000	-5.440000
0.001756	-19.200000	-5.360000
0.001760	-18.400000	-5.200000
0.001764	-18.000000	-5.040000
0.001768	-17.200000	-4.880000
0.001772	-16.400000	-4.720000
0.001776	-15.600000	-4.640000
0.001780	-14.800000	-4.480000
0.001784	-14.000000	-4.240000
0.001788	-13.200000	-4.080000
0.001792	-12.800000	-3.920000
0.001796	-12.000000	-3.760000
0.001800	-11.200000	-3.520000
0.001804	-10.400000	-3.360000
0.001808	-9.600000	-3.120000
0.001812	-8.800000	-2.960000
0.001816	-8.000000	-2.720000
0.001820	-7.200000	-2.480000
0.001824	-6.400000	-2.240000
0.001828	-5.600000	-2.080000
0.001832	-5.200000	-1.840000
0.001836	-4.400000	-1.600000
0.001840	-3.600000	-1.360000
0.001844	-2.800000	-1.120000
0.001848	-2.000000	-0.880000
0.001852	-1.200000	-0.640000
0.001856	-0.400000	-0.400000
0.001860	0.400000	-0.160000
0.001864	1.200000	0.080000
0.001868	1.600000	0.320000
0.001872	2.400000	0.560000
0.001876	3.200000	0.800000
0.001880	4.000000	1.040000
0.001884	4.800000	1.280000
0.001888	5.600000	1.520000
0.001892	6.400000	1.760000
0.001896	7.200000	1.920000
0.001900	7.600000	2.160000
0.001904	8.400000	2.320000
0.001908	9.200000	2.560000
0.001912	10.000000	2.720000
0.001916	10.800000	2.960000
0.001920	11.600000	3.120000
0.001924	12.400000	3.280000
0.001928	13.200000	3.520000
0.001932	13.600000	3.680000
0.001936	14.400000	3.840000
0.001940	15.200000	4.000000
0.001944	16.000000	4.160000
0.001948	16.800000	4.320000
0.001952	17.600000	4.480000
0.001956	18.000000	4.560000
0.001960	18.800000	4.720000
0.001964	19.600000	4.880000
0.001968	20.400000	5.040000
0.001972	21.200000	5.200000
0.001976	22.000000	5.360000
0.001980	22.800000	5.520000
0.001984	23.600000	5.680000
0.001988	24.400000	5.840000
0.001992	24.800000	5.920000
0.001996	25.600000	6.080000
0.002000	26.400000	6.240000
0.002004	27.200000	6.400000
0.002008	28.000000	6.560000
0.002012	28.400000	6.720000
0.002016	28.800000	6.880000
0.002020	28.400000	6.800000
0.002024	27.600000	6.640000
0.002028	26.800000	6.560000
0.002032	26.000000	6.400000
0.002036	25.200000	6.240000
0.002040	24.800000	6.160000
0.002044	24.000000	6.000000
0.002048	23.200000	5.920000
0.002052	22.400000	5.840000
0.002056	21.600000	5.680000
0.002060	20.800000	5.600000
0.002064	20.000000	5.440000
0.002068	19.200000	5.280000
0.002072	18.400000	5.200000
0.002076	17.600000	5.040000
0.002080	17.200000	4.880000
0.002084	16.400000	4.720000
0.002088	15.600000	4.560000
0.002092	14.800000	4.480000
0.002096	14.000000	4.320000
0.002100	13.200000	4.080000
0.002104	12.800000	3.920000
0.002108	12.000000	3.760000
0.002112	11.200000	3.600000
0.002116	10.400000	3.360000
0.002120	9.600000	3.200000
0.002124	8.800000	2.960000
0.002128	8.000000	2.720000
0.002132	7.200000	2.560000
0.002136	6.400000	2.320000
0.002140	6.000000	2.080000
0.002144	5.200000	1.840000
0.002148	4.400000	1.680000
0.002152	3.600000	1.440000
0.002156	2.800000	1.120000
0.002160	2.000000	0.960000
0.002164	1.200000	0.720000
0.002168	0.800000	0.400000
0.002172	0.000000	0.240000
0.002176	-0.800000	0.000000
0.002180	-1.600000	-0.320000
0.002184	-2.400000	-0.480000
0.002188	-3.200000	-0.800000
0.002192	-4.000000	-1.040000
0.002196	-4.800000	-1.200000
0.002200	-5.600000	-1.440000
0.002204	-6.400000	-1.680000
0.002208	-6.800000	-1.920000
0.002212	-7.600000	-2.080000
0.002216	-8.400000	-2.320000
0.002220	-9.200000	-2.560000
0.002224	-10.000000	-2.720000
0.002228	-10.800000	-2.880000
0.002232	-11.600000	-3.120000
0.002236	-12.400000	-3.280000
0.002240	-12.800000	-3.440000
0.002244	-13.600000	-3.600000
0.002248	-14.400000	-3.840000
0.002252	-15.200000	-4.000000
0.002256	-16.000000	-4.160000
0.002260	-16.800000	-4.320000
0.002264	-17.600000	-4.480000
0.002268	-18.000000	-4.640000
0.002272	-18.800000	-4.800000
0.002276	-19.600000	-4.880000
0.002280	-20.400000	-5.040000
0.002284	-21.200000	-5.200000
0.002288	-22.000000	-5.360000
0.002292	-22.800000	-5.520000
0.002296	-23.200000	-5.680000
0.002300	-24.000000	-5.840000
0.002304	-24.800000	-6.000000
0.002308	-25.600000	-6.160000
0.002312	-26.400000	-6.320000
0.002316	-27.200000	-6.480000
0.002320	-28.000000	-6.640000
0.002324	-28.800000	-6.880000
0.002328	-29.200000	-6.960000
0.002332	-28.400000	-6.880000
0.002336	-28.000000	-6.720000
0.002340	-27.200000	-6.640000
0.002344	-26.400000	-6.480000
0.002348	-25.600000	-6.400000
0.002352	-24.800000	-6.240000
0.002356	-24.000000	-6.160000
0.002360	-23.200000	-6.080000
0.002364	-22.800000	-5.920000
0.002368	-22.000000	-5.760000
0.002372	-20.800000	-5.600000
0.002376	-20.000000	-5.520000
0.002380	-19.600000	-5.360000
0.002384	-18.800000	-5.280000
0.002388	-18.000000	-5.120000
0.002392	-17.200000	-4.960000
0.002396	-16.400000	-4.800000
0.002400	-16.000000	-4.640000
0.002404	-14.800000	-4.560000
0.002408	-14.400000	-4.320000
0.002412	-13.600000	-4.160000
0.002416	-12.800000	-4.000000
0.002420	-12.000000	-3.760000
0.002424	-11.200000	-3.600000
0.002428	-10.400000	-3.360000
0.002432	-10.000000	-3.200000
0.002436	-8.800000	-2.960000
0.002440	-8.400000	-2.800000
0.002444	-7.600000	-2.560000
0.002448	-6.800000	-2.320000
0.002452	-6.000000	-2.080000
0.002456	-5.200000	-1.920000
0.002460	-4.400000	-1.680000
0.002464	-4.000000	-1.440000
0.002468	-2.800000	-1.200000
0.002472	-2.000000	-0.960000
0.002476	-1.200000	-0.720000
0.002480	-0.400000	-0.400000
0.002484	0.400000	-0.160000
0.002488	0.800000	0.080000
0.002492	1.600000	0.320000
0.002496	2.400000	0.480000
0.002500	3.200000	0.800000
0.002504	4.000000	1.040000
0.002508	4.800000	1.200000
0.002512	5.200000	1.440000
0.002516	6.000000	1.680000
0.002520	6.800000	1.840000
0.002524	7.600000	2.080000
0.002528	8.400000	2.320000
0.002532	9.200000	2.480000
0.002536	10.000000	2.720000
0.002540	10.400000	2.880000
0.002544	11.200000	3.120000
0.002548	12.000000	3.280000
0.002552	12.800000	3.440000
0.002556	13.600000	3.600000
0.002560	14.000000	3.760000
0.002564	15.200000	3.920000
0.002568	16.000000	4.080000
0.002572	16.800000	4.240000
0.002576	17.200000	4.400000
0.002580	18.000000	4.560000
0.002584	18.800000	4.720000
0.002588	19.600000	4.880000
0.002592	20.000000	5.040000
0.002596	20.800000	5.200000
0.002600	21.600000	5.280000
0.002604	22.400000	5.440000
0.002608	23.200000	5.600000
0.002612	24.000000	5.760000
0.002616	24.800000	5.920000
0.002620	25.200000	6.000000
0.002624	26.000000	6.160000
0.002628	26.800000	6.320000
0.002632	27.600000	6.560000
0.002636	28.400000	6.720000
0.002640	28.800000	6.880000
0.002644	28.400000	6.800000
0.002648	28.000000	6.640000
0.002652	27.200000	6.560000
0.002656	26.000000	6.480000
0.002660	25.600000	6.320000
0.002664	24.800000	6.160000
0.002668	24.000000	6.080000
0.002672	23.200000	5.920000
0.002676	22.400000	5.840000
0.002680	22.000000	5.760000
0.002684	21.200000	5.600000
0.002688	20.400000	5.440000
0.002692	19.600000	5.360000
0.002696	18.800000	5.200000
0.002700	18.000000	5.120000
0.002704	17.200000	4.960000
0.002708	16.800000	4.800000
0.002712	16.000000	4.640000
0.002716	15.200000	4.480000
0.002720	14.000000	4.320000
0.002724	13.600000	4.160000
0.002728	12.800000	4.000000
0.002732	12.000000	3.840000
0.002736	11.200000	3.600000
0.002740	10.400000	3.440000
0.002744	9.600000	3.200000
0.002748	9.200000	3.040000
0.002752	8.400000	2.800000
0.002756	7.600000	2.560000
0.002760	6.800000	2.400000
0.002764	6.000000	2.160000
0.002768	5.200000	1.920000
0.002772	4.400000	1.680000
0.002776	4.000000	1.440000
0.002780	3.200000	1.200000
0.002784	2.000000	0.960000
0.002788	1.600000	0.720000
0.002792	0.800000	0.480000
0.002796	0.000000	0.240000
0.002800	-0.800000	0.080000
0.002804	-1.600000	-0.240000
0.002808	-2.400000	-0.480000
0.002812	-2.800000	-0.720000
0.002816	-4.000000	-0.960000
0.002820	-4.400000	-1.200000
0.002824	-5.200000	-1.360000
0.002828	-6.000000	-1.600000
0.002832	-6.800000	-1.840000
0.002836	-7.600000	-2.080000
0.002840	-8.400000	-2.240000
0.002844	-8.800000	-2.480000
0.002848	-10.000000	-2.720000
0.002852	-10.400000	-2.880000
0.002856	-11.200000	-3.040000
0.002860	-12.000000	-3.280000
0.002864	-12.800000	-3.440000
0.002868	-13.600000	-3.600000
0.002872	-14.400000	-3.760000
0.002876	-14.800000	-3.920000
0.002880	-15.600000	-4.080000
0.002884	-16.400000	-4.240000
0.002888	-17.200000	-4.400000
0.002892	-18.000000	-4.560000
0.002896	-18.800000	-4.720000
0.002900	-19.600000	-4.880000
0.002904	-20.400000	-5.040000
0.002908	-20.800000	-5.200000
0.002912	-21.600000	-5.360000
0.002916	-22.400000	-5.520000
0.002920	-23.200000	-5.600000
0.002924	-24.000000	-5.760000
0.002928	-24.800000	-6.000000
0.002932	-25.200000	-6.160000
0.002936	-26.000000	-6.240000
0.002940	-26.800000	-6.480000
0.002944	-27.600000	-6.640000
0.002948	-28.400000	-6.800000
0.002952	-29.200000	-6.960000
0.002956	-28.800000	-6.960000
0.002960	-28.000000	-6.800000
0.002964	-27.200000	-6.720000
0.002968	-26.400000	-6.560000
0.002972	-26.000000	-6.400000
0.002976	-25.200000	-6.320000
0.002980	-24.400000	-6.160000
0.002984	-23.600000	-6.080000
0.002988	-22.800000	-5.920000
0.002992	-22.000000	-5.760000
0.002996	-21.200000	-5.680000
0.003000	-20.400000	-5.520000
0.003004	-19.600000	-5.440000
0.003008	-18.800000	-5.280000
0.003012	-18.400000	-5.120000
0.003016	-17.600000	-5.040000
0.003020	-16.800000	-4.880000
0.003024	-16.000000	-4.720000
0.003028	-15.200000	-4.560000
0.003032	-14.400000	-4.320000
0.003036	-13.600000	-4.160000
0.003040	-12.800000	-4.000000
0.003044	-12.000000	-3.840000
0.003048	-11.600000	-3.680000
0.003052	-10.800000	-3.440000
0.003056	-10.000000	-3.280000
0.003060	-9.200000	-3.040000
0.003064	-8.400000	-2.800000
0.003068	-7.600000	-2.640000
0.003072	-6.800000	-2.400000
0.003076	-6.400000	-2.160000
0.003080	-5.600000	-2.000000
0.003084	-4.800000	-1.760000
0.003088	-4.000000	-1.440000
0.003092	-3.200000	-1.200000
0.003096	-2.400000	-1.040000
0.003100	-1.600000	-0.720000
0.003104	-0.800000	-0.480000
0.003108	0.000000	-0.240000
0.003112	0.800000	0.000000
0.003116	1.200000	0.240000
0.003120	2.000000	0.480000
0.003124	2.800000	0.720000
0.003128	3.600000	0.960000
0.003132	4.400000	1.120000
0.003136	5.200000	1.360000
0.003140	6.000000	1.600000
0.003144	6.400000	1.840000
0.003148	7.200000	2.000000
0.003152	8.000000	2.240000
0.003156	9.200000	2.480000
0.003160	9.600000	2.640000
0.003164	10.400000	2.880000
0.003168	11.200000	3.040000
0.003172	12.000000	3.200000
0.003176	12.400000	3.360000
0.003180	13.200000	3.600000
0.003184	14.000000	3.760000
0.003188	14.800000	3.920000
0.003192	15.600000	4.080000
0.003196	16.400000	4.240000
0.003200	17.200000	4.400000
0.003204	18.000000	4.560000
0.003208	18.400000	4.640000
0.003212	19.200000	4.800000
0.003216	20.000000	4.960000
0.003220	20.800000	5.120000
0.003224	21.600000	5.280000
0.003228	22.400000	5.440000
0.003232	22.800000	5.520000
0.003236	23.600000	5.680000
0.003240	24.400000	5.840000
0.003244	25.200000	6.000000
0.003248	26.000000	6.160000
0.003252	26.800000	6.320000
0.003256	27.600000	6.480000
0.003260	28.400000	6.720000
0.003264	28.800000	6.800000
0.003268	28.800000	6.800000
0.003272	28.000000	6.720000
0.003276	27.200000	6.560000
0.003280	26.400000	6.480000
0.003284	25.600000	6.320000
0.003288	24.800000	6.240000
0.003292	24.400000	6.080000
0.003296	23.600000	6.000000
0.003300	22.800000	5.920000
0.003304	22.000000	5.760000
0.003308	21.200000	5.600000
0.003312	20.400000	5.520000
0.003316	19.600000	5.360000
0.003320	18.800000	5.280000
0.003324	18.400000	5.120000
0.003328	17.600000	4.960000
0.003332	16.800000	4.800000
0.003336	16.000000	4.640000
0.003340	15.200000	4.480000
0.003344	14.400000	4.400000
0.003348	13.600000	4.160000
0.003352	12.800000	4.000000
0.003356	12.400000	3.840000
0.003360	11.600000	3.680000
0.003364	10.800000	3.440000
0.003368	10.000000	3.280000
0.003372	9.200000	3.120000
0.003376	8.400000	2.880000
0.003380	7.600000	2.640000
0.003384	6.800000	2.400000
0.003388	6.400000	2.240000
0.003392	5.600000	2.000000
0.003396	4.800000	1.760000
0.003400	4.000000	1.520000
0.003404	3.200000	1.280000
0.003408	2.400000	1.040000
0.003412	1.600000	0.800000
0.003416	0.800000	0.560000
0.003420	0.400000	0.320000
0.003424	-0.400000	0.080000
0.003428	-1.200000	-0.160000
0.003432	-2.000000	-0.400000
0.003436	-2.800000	-0.640000
0.003440	-3.600000	-0.880000
0.003444	-4.400000	-1.120000
0.003448	-5.200000	-1.360000
0.003452	-6.000000	-1.600000
0.003456	-6.400000	-1.760000
0.003460	-7.200000	-2.000000
0.003464	-8.000000	-2.240000
0.003468	-8.800000	-2.400000
0.003472	-9.600000	-2.640000
0.003476	-10.400000	-2.800000
0.003480	-11.200000	-3.040000
0.003484	-12.000000	-3.200000
0.003488	-12.800000	-3.360000
0.003492	-13.200000	-3.520000
0.003496	-14.000000	-3.760000
0.003500	-14.800000	-3.920000
0.003504	-15.600000	-4.080000
0.003508	-16.400000	-4.240000
0.003512	-17.200000	-4.400000
0.003516	-17.600000	-4.560000
0.003520	-18.400000	-4.720000
0.003524	-19.200000	-4.800000
0.003528	-20.000000	-4.960000
0.003532	-20.800000	-5.120000
0.003536	-21.600000	-5.280000
0.003540	-22.400000	-5.440000
0.003544	-23.200000	-5.600000
0.003548	-23.600000	-5.760000
0.003552	-24.400000	-5.920000
0.003556	-25.200000	-6.080000
0.003560	-26.000000	-6.240000
0.003564	-26.800000	-6.400000
0.003568	-27.600000	-6.560000
0.003572	-28.400000	-6.800000
0.003576	-29.200000	-6.960000
0.003580	-28.800000	-6.960000
0.003584	-28.400000	-6.880000
0.003588	-27.600000	-6.720000
0.003592	-26.800000	-6.640000
0.003596	-26.000000	-6.480000
0.003600	-25.200000	-6.320000
0.003604	-24.400000	-6.240000
0.003608	-23.600000	-6.080000
0.003612	-22.800000	-6.000000
0.003616	-22.400000	-5.840000
0.003620	-21.600000	-5.680000
0.003624	-20.400000	-5.600000
0.003628	-20.000000	-5.440000
0.003632	-19.200000	-5.360000
0.003636	-18.400000	-5.200000
0.003640	-17.600000	-5.040000
0.003644	-16.800000	-4.880000
0.003648	-16.000000	-4.720000
0.003652	-15.200000	-4.560000
0.003656	-14.400000	-4.400000
0.003660	-13.600000	-4.240000
0.003664	-13.200000	-4.080000
0.003668	-12.400000	-3.920000
0.003672	-11.600000	-3.680000
0.003676	-10.800000	-3.520000
0.003680	-10.400000	-3.280000
0.003684	-9.600000	-3.120000
0.003688	-8.800000	-2.880000
0.003692	-8.000000	-2.720000
0.003696	-6.800000	-2.480000
0.003700	-6.400000	-2.240000
0.003704	-5.600000	-2.000000
0.003708	-4.800000	-1.760000
0.003712	-4.000000	-1.520000
0.003716	-3.200000	-1.280000
0.003720	-2.400000	-1.040000
0.003724	-1.600000	-0.800000
0.003728	-0.800000	-0.560000
0.003732	0.000000	-0.320000
0.003736	0.400000	-0.080000
0.003740	1.200000	0.160000
0.003744	2.000000	0.400000
0.003748	2.800000	0.640000
0.003752	3.600000	0.880000
0.003756	4.400000	1.120000
0.003760	5.200000	1.360000
0.003764	5.600000	1.600000
0.003768	6.400000	1.760000
0.003772	7.200000	2.000000
0.003776	8.000000	2.240000
0.003780	8.800000	2.400000
0.003784	9.600000	2.640000
0.003788	10.000000	2.800000
0.003792	10.800000	2.960000
0.003796	11.600000	3.200000
0.003800	12.400000	3.360000
0.003804	13.200000	3.520000
0.003808	14.000000	3.680000
0.003812	14.800000	3.840000
0.003816	15.600000	4.000000
0.003820	16.400000	4.160000
0.003824	17.200000	4.320000
0.003828	17.600000	4.480000
0.003832	18.400000	4.640000
0.003836	19.200000	4.800000
0.003840	20.000000	4.960000
0.003844	20.400000	5.120000
0.003848	21.200000	5.200000
0.003852	22.000000	5.360000
0.003856	22.800000	5.520000
0.003860	23.600000	5.680000
0.003864	24.400000	5.840000
0.003868	25.200000	6.000000
0.003872	25.600000	6.080000
0.003876	26.400000	6.240000
0.003880	27.200000	6.480000
0.003884	28.000000	6.640000
0.003888	28.800000	6.800000
0.003892	28.800000	6.880000
0.003896	28.400000	6.720000
0.003900	27.600000	6.640000
0.003904	26.400000	6.480000
0.003908	26.000000	6.320000
0.003912	25.200000	6.240000
0.003916	24.400000	6.080000
0.003920	23.600000	6.000000
0.003924	22.800000	5.920000
0.003928	22.000000	5.760000
0.003932	21.600000	5.680000
0.003936	20.800000	5.520000
0.003940	20.000000	5.360000
0.003944	19.200000	5.280000
0.003948	18.400000	5.200000
0.003952	17.600000	5.040000
0.003956	16.800000	4.880000
0.003960	16.400000	4.720000
0.003964	15.600000	4.560000
0.003968	14.800000	4.400000
0.003972	14.000000	4.240000
0.003976	13.200000	4.080000
0.003980	12.400000	3.920000
0.003984	11.600000	3.680000
0.003988	10.800000	3.520000
0.003992	10.000000	3.360000
0.003996	9.600000	3.120000
0.004000	8.800000	2.880000
0.004004	8.000000	2.720000
0.004008	7.200000	2.480000
0.004012	6.400000	2.240000
0.004016	5.600000	2.000000
0.004020	4.800000	1.840000
0.004024	4.000000	1.600000
0.004028	3.600000	1.360000
0.004032	2.400000	1.120000
0.004036	2.000000	0.880000
0.004040	1.200000	0.640000
0.004044	0.400000	0.400000
0.004048	-0.400000	0.160000
0.004052	-1.200000	-0.080000
0.004056	-1.600000	-0.320000
0.004060	-2.400000	-0.560000
0.004064	-3.600000	-0.880000
0.004068	-4.400000	-1.040000
0.004072	-4.800000	-1.280000
0.004076	-5.600000	-1.520000
0.004080	-6.400000	-1.760000
0.004084	-7.200000	-1.920000
0.004088	-8.000000	-2.160000
0.004092	-8.400000	-2.400000
0.004096	-9.600000	-2.560000
0.004100	-10.000000	-2.800000
0.004104	-10.800000	-2.960000
0.004108	-11.600000	-3.120000
0.004112	-12.400000	-3.360000
0.004116	-13.200000	-3.520000
0.004120	-14.000000	-3.680000
0.004124	-14.400000	-3.840000
0.004128	-15.200000	-4.000000
0.004132	-16.000000	-4.160000
0.004136	-16.800000	-4.320000
0.004140	-17.600000	-4.480000
0.004144	-18.400000	-4.640000
0.004148	-19.200000	-4.800000
0.004152	-20.000000	-4.960000
0.004156	-20.400000	-5.120000
0.004160	-21.200000	-5.280000
0.004164	-22.000000	-5.440000
0.004168	-22.800000	-5.600000
0.004172	-23.600000	-5.680000
0.004176	-24.400000	-5.920000
0.004180	-24.800000	-6.080000
0.004184	-25.600000	-6.240000
0.004188	-26.400000	-6.400000
0.004192	-27.200000	-6.560000
0.004196	-28.000000	-6.720000
0.004200	-28.800000	-6.880000
0.004204	-29.200000	-6.960000
0.004208	-28.400000	-6.880000
0.004212	-27.600000	-6.720000
0.004216	-26.800000	-6.640000
0.004220	-26.000000	-6.480000
0.004224	-25.200000	-6.320000
0.004228	-24.400000	-6.240000
0.004232	-23.600000	-6.080000
0.004236	-23.200000	-6.000000
0.004240	-22.400000	-5.840000
0.004244	-21.600000	-5.760000
0.004248	-20.800000	-5.600000
0.004252	-20.000000	-5.440000
0.004256	-19.200000	-5.360000
0.004260	-18.400000	-5.200000
0.004264	-17.600000	-5.040000
0.004268	-17.200000	-4.880000
0.004272	-16.400000	-4.720000
0.004276	-15.600000	-4.640000
0.004280	-14.800000	-4.480000
0.004284	-14.000000	-4.240000
0.004288	-13.200000	-4.080000
0.004292	-12.400000	-3.920000
0.004296	-12.000000	-3.760000
0.004300	-11.200000	-3.600000
0.004304	-10.400000	-3.360000
0.004308	-9.600000	-3.120000
0.004312	-8.800000	-2.960000
0.004316	-8.000000	-2.720000
0.004320	-7.200000	-2.480000
0.004324	-6.400000	-2.240000
0.004328	-6.000000	-2.080000
0.004332	-5.200000	-1.840000
0.004336	-4.400000	-1.600000
0.004340	-3.600000	-1.360000
0.004344	-2.800000	-1.120000
0.004348	-2.000000	-0.880000
0.004352	-1.200000	-0.640000
0.004356	-0.400000	-0.400000
0.004360	0.400000	-0.160000
0.004364	1.200000	0.080000
0.004368	1.600000	0.320000
0.004372	2.400000	0.560000
0.004376	3.200000	0.800000
0.004380	4.000000	1.040000
0.004384	4.800000	1.280000
0.004388	5.600000	1.520000
0.004392	6.400000	1.760000
0.004396	6.800000	1.920000
0.004400	7.600000	2.160000
0.004404	8.400000	2.320000
0.004408	9.200000	2.560000
0.004412	10.000000	2.720000
0.004416	10.800000	2.960000
0.004420	11.600000	3.120000
0.004424	12.400000	3.280000
0.004428	12.800000	3.520000
0.004432	13.600000	3.680000
0.004436	14.400000	3.840000
0.004440	15.200000	4.000000
0.004444	16.000000	4.160000
0.004448	16.800000	4.320000
0.004452	17.600000	4.480000
0.004456	18.000000	4.560000
0.004460	18.800000	4.720000
0.004464	19.600000	4.880000
0.004468	20.400000	5.040000
0.004472	21.200000	5.200000
0.004476	22.000000	5.360000
0.004480	22.800000	5.520000
0.004484	23.600000	5.600000
0.004488	24.000000	5.760000
0.004492	24.800000	5.920000
0.004496	25.600000	6.080000
0.004500	26.400000	6.240000
0.004504	26.800000	6.400000
0.004508	28.000000	6.560000
0.004512	28.400000	6.720000
0.004516	29.200000	6.880000
0.004520	28.400000	6.800000
0.004524	27.600000	6.640000
0.004528	26.800000	6.560000
0.004532	26.000000	6.400000
0.004536	25.200000	6.240000
0.004540	24.800000	6.160000
0.004544	24.000000	6.000000
0.004548	23.200000	5.920000
0.004552	22.400000	5.840000
0.004556	21.600000	5.680000
0.004560	20.800000	5.600000
0.004564	20.000000	5.440000
0.004568	19.200000	5.280000
0.004572	18.800000	5.200000
0.004576	18.000000	5.040000
0.004580	17.200000	4.880000
0.004584	16.400000	4.720000
0.004588	15.600000	4.640000
0.004592	14.800000	4.480000
0.004596	14.000000	4.320000
0.004600	13.200000	4.080000
0.004604	12.800000	3.920000
0.004608	12.000000	3.760000
0.004612	11.200000	3.600000
0.004616	10.400000	3.360000
0.004620	9.600000	3.200000
0.004624	8.800000	2.960000
0.004628	8.000000	2.720000
0.004632	7.200000	2.560000
0.004636	6.800000	2.320000
0.004640	6.000000	2.080000
0.004644	5.200000	1.840000
0.004648	4.400000	1.680000
0.004652	3.600000	1.440000
0.004656	2.800000	1.120000
0.004660	2.000000	0.960000
0.004664	1.200000	0.720000
0.004668	0.800000	0.400000
0.004672	0.000000	0.240000
0.004676	-0.800000	0.000000
0.004680	-1.600000	-0.320000
0.004684	-2.400000	-0.480000
0.004688	-3.200000	-0.800000
0.004692	-4.000000	-1.040000
0.004696	-4.800000	-1.200000
0.004700	-5.600000	-1.440000
0.004704	-6.400000	-1.680000
0.004708	-6.800000	-1.920000
0.004712	-7.600000	-2.080000
0.004716	-8.400000	-2.320000
0.004720	-9.200000	-2.560000
0.004724	-10.000000	-2.720000
0.004728	-10.800000	-2.880000
0.004732	-11.600000	-3.120000
0.004736	-12.400000	-3.280000
0.004740	-12.800000	-3.440000
0.004744	-13.600000	-3.600000
0.004748	-14.400000	-3.840000
0.004752	-15.200000	-4.000000
0.004756	-16.000000	-4.160000
0.004760	-16.800000	-4.320000
0.004764	-17.600000	-4.480000
0.004768	-18.000000	-4.640000
0.004772	-18.800000	-4.800000
0.004776	-19.600000	-4.880000
0.004780	-20.400000	-5.040000
0.004784	-21.200000	-5.200000
0.004788	-22.000000	-5.360000
0.004792	-22.800000	-5.520000
0.004796	-23.200000	-5.680000
0.004800	-24.000000	-5.840000
0.004804	-24.800000	-6.000000
0.004808	-25.600000	-6.160000
0.004812	-26.400000	-6.320000
0.004816	-27.200000	-6.480000
0.004820	-28.000000	-6.640000
0.004824	-28.800000	-6.880000
0.004828	-29.200000	-6.960000
0.004832	-28.800000	-6.880000
0.004836	-28.000000	-6.800000
0.004840	-26.800000	-6.640000
0.004844	-26.400000	-6.480000
0.004848	-25.600000	-6.400000
0.004852	-24.800000	-6.240000
0.004856	-24.000000	-6.160000
0.004860	-23.200000	-6.080000
0.004864	-22.800000	-5.920000
0.004868	-22.000000	-5.760000
0.004872	-20.800000	-5.600000
0.004876	-20.000000	-5.520000
0.004880	-19.600000	-5.360000
0.004884	-18.800000	-5.280000
0.004888	-18.000000	-5.120000
0.004892	-17.200000	-4.960000
0.004896	-16.400000	-4.800000
0.004900	-16.000000	-4.640000
0.004904	-14.800000	-4.560000
0.004908	-14.400000	-4.320000
0.004912	-13.600000	-4.160000
0.004916	-12.800000	-4.000000
0.004920	-12.000000	-3.760000
0.004924	-11.200000	-3.600000
0.004928	-10.400000	-3.360000
0.004932	-9.600000	-3.200000
0.004936	-8.800000	-2.960000
0.004940	-8.400000	-2.800000
0.004944	-7.200000	-2.560000
0.004948	-6.800000	-2.320000
0.004952	-6.000000	-2.080000
0.004956	-5.200000	-1.920000
0.004960	-4.800000	-1.680000
0.004964	-4.000000	-1.440000
0.004968	-2.800000	-1.200000
0.004972	-2.000000	-0.960000
0.004976	-1.200000	-0.720000
0.004980	-0.400000	-0.400000
0.004984	0.000000	-0.160000
0.004988	0.800000	0.080000
0.004992	1.600000	0.320000
0.004996	2.400000	0.480000

