LabVIEW Measurement	
Writer_Version	2
Reader_Version	2
Separator	Tab
Decimal_Separator	.
Multi_Headings	Yes
X_Columns	One
Time_Pref	Relative
Operator	e014
Description	Hysteresis Loop Data
Date	2015/07/23
Time	13:48:34.3296637535095214844
***End_of_Header***	
	
Channels	2		
Samples	2500	2500	
Date	2015/07/23	2015/07/23	
Time	13:48:34.3296637535095214844	13:48:34.3296637535095214844	
X_Dimension	Time	Time	
X0	-5.0000000000000001E-3	-5.0000000000000001E-3	
Delta_X	4.000000E-6	4.000000E-6	
***End_of_Header***			
X_Value	Untitled	Untitled 1	Comment
-0.005000	-1.600000	-0.400000
-0.004996	1.200000	0.000000
-0.004992	4.000000	0.600000
-0.004988	6.800000	1.000000
-0.004984	9.600000	1.400000
-0.004980	12.400000	2.000000
-0.004976	15.200000	2.600000
-0.004972	18.000000	3.000000
-0.004968	20.800000	3.600000
-0.004964	23.600000	4.200000
-0.004960	26.400000	4.800000
-0.004956	28.800000	5.400000
-0.004952	26.400000	5.000000
-0.004948	24.000000	4.400000
-0.004944	20.800000	4.000000
-0.004940	18.000000	3.400000
-0.004936	15.200000	2.800000
-0.004932	12.400000	2.400000
-0.004928	9.600000	1.800000
-0.004924	6.800000	1.400000
-0.004920	4.000000	1.000000
-0.004916	1.200000	0.400000
-0.004912	-1.600000	0.000000
-0.004908	-4.400000	-0.600000
-0.004904	-7.200000	-1.000000
-0.004900	-10.000000	-1.600000
-0.004896	-13.200000	-2.200000
-0.004892	-16.000000	-2.600000
-0.004888	-18.800000	-3.200000
-0.004884	-21.600000	-3.800000
-0.004880	-24.400000	-4.400000
-0.004876	-27.200000	-5.000000
-0.004872	-29.200000	-5.400000
-0.004868	-26.400000	-5.000000
-0.004864	-23.600000	-4.400000
-0.004860	-20.400000	-3.800000
-0.004856	-17.600000	-3.400000
-0.004852	-14.800000	-2.800000
-0.004848	-12.000000	-2.200000
-0.004844	-9.200000	-1.800000
-0.004840	-6.400000	-1.400000
-0.004836	-3.600000	-0.800000
-0.004832	-0.400000	-0.200000
-0.004828	2.400000	0.200000
-0.004824	5.200000	0.800000
-0.004820	8.000000	1.200000
-0.004816	10.800000	1.800000
-0.004812	13.600000	2.200000
-0.004808	16.400000	2.800000
-0.004804	19.200000	3.200000
-0.004800	22.000000	3.800000
-0.004796	24.800000	4.400000
-0.004792	27.600000	5.000000
-0.004788	28.800000	5.400000
-0.004784	25.600000	4.800000
-0.004780	22.800000	4.200000
-0.004776	20.000000	3.600000
-0.004772	17.200000	3.200000
-0.004768	14.400000	2.600000
-0.004764	11.600000	2.200000
-0.004760	8.400000	1.600000
-0.004756	5.600000	1.200000
-0.004752	2.800000	0.800000
-0.004748	0.000000	0.200000
-0.004744	-2.800000	-0.200000
-0.004740	-5.600000	-0.800000
-0.004736	-8.400000	-1.200000
-0.004732	-11.200000	-1.800000
-0.004728	-14.000000	-2.400000
-0.004724	-17.200000	-2.800000
-0.004720	-19.600000	-3.400000
-0.004716	-22.800000	-4.000000
-0.004712	-25.600000	-4.600000
-0.004708	-28.400000	-5.200000
-0.004704	-28.000000	-5.200000
-0.004700	-25.200000	-4.600000
-0.004696	-22.400000	-4.200000
-0.004692	-19.600000	-3.600000
-0.004688	-16.800000	-3.000000
-0.004684	-13.600000	-2.600000
-0.004680	-10.800000	-2.000000
-0.004676	-8.000000	-1.600000
-0.004672	-5.200000	-1.200000
-0.004668	-2.400000	-0.600000
-0.004664	0.400000	0.000000
-0.004660	3.600000	0.400000
-0.004656	6.000000	1.000000
-0.004652	9.200000	1.400000
-0.004648	12.000000	2.000000
-0.004644	14.800000	2.400000
-0.004640	17.600000	3.000000
-0.004636	20.400000	3.600000
-0.004632	23.200000	4.200000
-0.004628	26.000000	4.800000
-0.004624	28.800000	5.400000
-0.004620	27.200000	5.200000
-0.004616	24.400000	4.600000
-0.004612	21.600000	4.000000
-0.004608	18.800000	3.400000
-0.004604	16.000000	3.000000
-0.004600	13.200000	2.600000
-0.004596	10.400000	2.000000
-0.004592	7.600000	1.400000
-0.004588	4.800000	1.000000
-0.004584	1.600000	0.600000
-0.004580	-0.800000	0.000000
-0.004576	-4.000000	-0.400000
-0.004572	-6.800000	-1.000000
-0.004568	-9.600000	-1.600000
-0.004564	-12.400000	-2.000000
-0.004560	-15.200000	-2.600000
-0.004556	-18.000000	-3.000000
-0.004552	-20.800000	-3.600000
-0.004548	-24.000000	-4.200000
-0.004544	-26.400000	-4.800000
-0.004540	-29.200000	-5.400000
-0.004536	-26.800000	-5.000000
-0.004532	-24.000000	-4.400000
-0.004528	-20.800000	-4.000000
-0.004524	-18.400000	-3.400000
-0.004520	-15.200000	-2.800000
-0.004516	-12.400000	-2.400000
-0.004512	-9.600000	-1.800000
-0.004508	-6.800000	-1.400000
-0.004504	-4.000000	-1.000000
-0.004500	-1.200000	-0.400000
-0.004496	1.600000	0.200000
-0.004492	4.800000	0.600000
-0.004488	7.200000	1.000000
-0.004484	10.400000	1.600000
-0.004480	13.200000	2.200000
-0.004476	16.000000	2.600000
-0.004472	18.800000	3.200000
-0.004468	21.600000	3.800000
-0.004464	24.400000	4.400000
-0.004460	27.200000	5.000000
-0.004456	29.200000	5.400000
-0.004452	26.000000	5.000000
-0.004448	23.200000	4.400000
-0.004444	20.400000	3.800000
-0.004440	17.600000	3.200000
-0.004436	14.800000	2.800000
-0.004432	12.000000	2.400000
-0.004428	9.200000	1.800000
-0.004424	6.400000	1.200000
-0.004420	3.600000	0.800000
-0.004416	0.800000	0.400000
-0.004412	-2.000000	0.000000
-0.004408	-5.200000	-0.600000
-0.004404	-8.000000	-1.200000
-0.004400	-10.800000	-1.800000
-0.004396	-13.600000	-2.200000
-0.004392	-16.400000	-2.800000
-0.004388	-19.200000	-3.400000
-0.004384	-22.000000	-3.800000
-0.004380	-24.800000	-4.600000
-0.004376	-27.600000	-5.200000
-0.004372	-28.800000	-5.400000
-0.004368	-26.000000	-4.800000
-0.004364	-22.800000	-4.200000
-0.004360	-20.000000	-3.800000
-0.004356	-17.200000	-3.200000
-0.004352	-14.400000	-2.600000
-0.004348	-11.600000	-2.200000
-0.004344	-8.400000	-1.600000
-0.004340	-6.000000	-1.200000
-0.004336	-2.800000	-0.600000
-0.004332	0.000000	-0.200000
-0.004328	2.800000	0.400000
-0.004324	5.600000	0.800000
-0.004320	8.400000	1.200000
-0.004316	11.200000	1.800000
-0.004312	14.000000	2.400000
-0.004308	16.800000	2.800000
-0.004304	19.600000	3.400000
-0.004300	22.400000	4.000000
-0.004296	25.200000	4.600000
-0.004292	28.000000	5.200000
-0.004288	28.000000	5.200000
-0.004284	25.200000	4.600000
-0.004280	22.400000	4.200000
-0.004276	19.200000	3.600000
-0.004272	16.800000	3.000000
-0.004268	13.600000	2.600000
-0.004264	10.800000	2.200000
-0.004260	8.000000	1.600000
-0.004256	5.200000	1.200000
-0.004252	2.400000	0.600000
-0.004248	-0.400000	0.200000
-0.004244	-3.600000	-0.400000
-0.004240	-6.400000	-0.800000
-0.004236	-9.200000	-1.400000
-0.004232	-12.000000	-2.000000
-0.004228	-14.800000	-2.400000
-0.004224	-17.600000	-3.000000
-0.004220	-20.400000	-3.600000
-0.004216	-23.200000	-4.200000
-0.004212	-26.000000	-4.800000
-0.004208	-28.800000	-5.400000
-0.004204	-27.200000	-5.200000
-0.004200	-24.400000	-4.600000
-0.004196	-21.600000	-4.000000
-0.004192	-18.800000	-3.600000
-0.004188	-16.000000	-3.000000
-0.004184	-13.200000	-2.400000
-0.004180	-10.400000	-2.000000
-0.004176	-7.200000	-1.600000
-0.004172	-4.800000	-1.000000
-0.004168	-1.600000	-0.400000
-0.004164	1.200000	0.000000
-0.004160	4.000000	0.600000
-0.004156	6.800000	1.000000
-0.004152	9.600000	1.400000
-0.004148	12.400000	2.000000
-0.004144	15.200000	2.600000
-0.004140	18.000000	3.000000
-0.004136	20.800000	3.600000
-0.004132	23.600000	4.200000
-0.004128	26.400000	4.800000
-0.004124	28.800000	5.400000
-0.004120	26.400000	5.000000
-0.004116	23.600000	4.400000
-0.004112	20.800000	4.000000
-0.004108	18.000000	3.400000
-0.004104	15.600000	2.800000
-0.004100	12.400000	2.400000
-0.004096	9.600000	2.000000
-0.004092	6.800000	1.400000
-0.004088	4.000000	1.000000
-0.004084	1.200000	0.400000
-0.004080	-1.600000	0.000000
-0.004076	-4.400000	-0.600000
-0.004072	-7.200000	-1.000000
-0.004068	-10.400000	-1.600000
-0.004064	-13.200000	-2.200000
-0.004060	-16.000000	-2.600000
-0.004056	-18.800000	-3.200000
-0.004052	-21.600000	-3.800000
-0.004048	-24.400000	-4.400000
-0.004044	-27.200000	-5.000000
-0.004040	-29.200000	-5.400000
-0.004036	-26.400000	-5.000000
-0.004032	-23.200000	-4.400000
-0.004028	-20.400000	-3.800000
-0.004024	-17.600000	-3.200000
-0.004020	-14.800000	-2.800000
-0.004016	-12.000000	-2.200000
-0.004012	-9.200000	-1.800000
-0.004008	-6.400000	-1.400000
-0.004004	-3.600000	-0.800000
-0.004000	-0.400000	-0.200000
-0.003996	2.400000	0.200000
-0.003992	5.200000	0.800000
-0.003988	8.000000	1.200000
-0.003984	10.800000	1.800000
-0.003980	13.600000	2.200000
-0.003976	16.400000	2.800000
-0.003972	19.200000	3.200000
-0.003968	22.000000	3.800000
-0.003964	24.800000	4.400000
-0.003960	27.600000	5.200000
-0.003956	28.400000	5.400000
-0.003952	25.600000	4.800000
-0.003948	22.800000	4.200000
-0.003944	20.000000	3.600000
-0.003940	17.200000	3.000000
-0.003936	14.400000	2.600000
-0.003932	11.600000	2.200000
-0.003928	8.400000	1.600000
-0.003924	5.600000	1.200000
-0.003920	2.800000	0.800000
-0.003916	0.000000	0.200000
-0.003912	-2.800000	-0.200000
-0.003908	-5.600000	-0.800000
-0.003904	-8.400000	-1.400000
-0.003900	-11.600000	-1.800000
-0.003896	-14.000000	-2.400000
-0.003892	-17.200000	-2.800000
-0.003888	-20.000000	-3.400000
-0.003884	-22.800000	-4.000000
-0.003880	-25.600000	-4.600000
-0.003876	-28.400000	-5.200000
-0.003872	-28.000000	-5.200000
-0.003868	-25.200000	-4.600000
-0.003864	-22.400000	-4.200000
-0.003860	-19.600000	-3.600000
-0.003856	-16.400000	-3.000000
-0.003852	-13.600000	-2.600000
-0.003848	-10.800000	-2.000000
-0.003844	-8.000000	-1.600000
-0.003840	-5.200000	-1.200000
-0.003836	-2.400000	-0.600000
-0.003832	0.400000	0.000000
-0.003828	3.600000	0.400000
-0.003824	6.400000	1.000000
-0.003820	9.200000	1.400000
-0.003816	12.000000	2.000000
-0.003812	14.800000	2.400000
-0.003808	17.600000	3.000000
-0.003804	20.400000	3.600000
-0.003800	23.200000	4.200000
-0.003796	26.000000	4.800000
-0.003792	28.800000	5.400000
-0.003788	27.200000	5.200000
-0.003784	24.400000	4.600000
-0.003780	21.600000	4.000000
-0.003776	18.800000	3.400000
-0.003772	16.000000	3.000000
-0.003768	13.200000	2.600000
-0.003764	10.400000	2.000000
-0.003760	7.200000	1.400000
-0.003756	4.800000	1.000000
-0.003752	1.600000	0.600000
-0.003748	-1.200000	0.000000
-0.003744	-4.000000	-0.400000
-0.003740	-6.800000	-1.000000
-0.003736	-9.600000	-1.400000
-0.003732	-12.400000	-2.000000
-0.003728	-15.200000	-2.600000
-0.003724	-18.000000	-3.200000
-0.003720	-20.800000	-3.600000
-0.003716	-24.000000	-4.200000
-0.003712	-26.800000	-5.000000
-0.003708	-29.200000	-5.600000
-0.003704	-26.800000	-5.000000
-0.003700	-23.600000	-4.400000
-0.003696	-20.800000	-4.000000
-0.003692	-18.400000	-3.400000
-0.003688	-15.200000	-2.800000
-0.003684	-12.400000	-2.400000
-0.003680	-9.600000	-1.800000
-0.003676	-6.800000	-1.400000
-0.003672	-4.000000	-0.800000
-0.003668	-0.800000	-0.400000
-0.003664	1.600000	0.200000
-0.003660	4.800000	0.600000
-0.003656	7.200000	1.000000
-0.003652	10.400000	1.600000
-0.003648	13.200000	2.200000
-0.003644	16.000000	2.600000
-0.003640	18.800000	3.200000
-0.003636	21.600000	3.800000
-0.003632	24.400000	4.400000
-0.003628	27.200000	5.000000
-0.003624	29.200000	5.400000
-0.003620	26.000000	5.000000
-0.003616	23.200000	4.400000
-0.003612	20.400000	3.800000
-0.003608	17.600000	3.200000
-0.003604	14.800000	2.800000
-0.003600	12.000000	2.400000
-0.003596	9.200000	1.800000
-0.003592	6.400000	1.200000
-0.003588	3.600000	0.800000
-0.003584	0.800000	0.400000
-0.003580	-2.000000	-0.200000
-0.003576	-5.200000	-0.600000
-0.003572	-8.000000	-1.200000
-0.003568	-10.800000	-1.800000
-0.003564	-13.600000	-2.200000
-0.003560	-16.400000	-2.800000
-0.003556	-19.200000	-3.400000
-0.003552	-22.000000	-4.000000
-0.003548	-24.800000	-4.600000
-0.003544	-27.600000	-5.200000
-0.003540	-28.800000	-5.400000
-0.003536	-25.600000	-4.800000
-0.003532	-22.800000	-4.200000
-0.003528	-20.000000	-3.800000
-0.003524	-17.200000	-3.200000
-0.003520	-14.400000	-2.600000
-0.003516	-11.600000	-2.200000
-0.003512	-8.400000	-1.600000
-0.003508	-6.000000	-1.200000
-0.003504	-2.800000	-0.600000
-0.003500	0.000000	-0.200000
-0.003496	2.800000	0.400000
-0.003492	5.600000	0.800000
-0.003488	8.400000	1.200000
-0.003484	11.600000	1.800000
-0.003480	14.000000	2.400000
-0.003476	17.200000	2.800000
-0.003472	19.600000	3.400000
-0.003468	22.800000	4.000000
-0.003464	25.200000	4.600000
-0.003460	28.000000	5.200000
-0.003456	28.000000	5.200000
-0.003452	24.800000	4.600000
-0.003448	22.000000	4.200000
-0.003444	19.200000	3.600000
-0.003440	16.400000	3.000000
-0.003436	13.600000	2.600000
-0.003432	10.800000	2.200000
-0.003428	8.000000	1.600000
-0.003424	5.200000	1.200000
-0.003420	2.400000	0.600000
-0.003416	-0.400000	0.200000
-0.003412	-3.600000	-0.400000
-0.003408	-6.400000	-0.800000
-0.003404	-9.200000	-1.400000
-0.003400	-12.000000	-2.000000
-0.003396	-14.800000	-2.400000
-0.003392	-17.600000	-3.000000
-0.003388	-20.400000	-3.600000
-0.003384	-23.200000	-4.200000
-0.003380	-26.000000	-4.800000
-0.003376	-28.800000	-5.400000
-0.003372	-27.200000	-5.200000
-0.003368	-24.400000	-4.600000
-0.003364	-21.600000	-4.000000
-0.003360	-18.800000	-3.400000
-0.003356	-16.000000	-3.000000
-0.003352	-13.200000	-2.400000
-0.003348	-10.400000	-2.000000
-0.003344	-7.200000	-1.600000
-0.003340	-4.400000	-1.000000
-0.003336	-1.600000	-0.400000
-0.003332	1.200000	0.000000
-0.003328	4.000000	0.600000
-0.003324	6.800000	1.000000
-0.003320	9.600000	1.400000
-0.003316	12.400000	2.000000
-0.003312	15.200000	2.600000
-0.003308	18.000000	3.000000
-0.003304	20.800000	3.600000
-0.003300	23.600000	4.200000
-0.003296	26.400000	4.800000
-0.003292	28.800000	5.400000
-0.003288	26.400000	5.000000
-0.003284	23.600000	4.400000
-0.003280	20.800000	3.800000
-0.003276	18.000000	3.400000
-0.003272	15.200000	2.800000
-0.003268	12.400000	2.400000
-0.003264	9.600000	1.800000
-0.003260	6.800000	1.400000
-0.003256	4.000000	1.000000
-0.003252	1.200000	0.400000
-0.003248	-1.600000	0.000000
-0.003244	-4.800000	-0.600000
-0.003240	-7.600000	-1.200000
-0.003236	-10.400000	-1.600000
-0.003232	-13.200000	-2.200000
-0.003228	-16.000000	-2.600000
-0.003224	-18.800000	-3.200000
-0.003220	-21.600000	-3.800000
-0.003216	-24.400000	-4.400000
-0.003212	-27.200000	-5.000000
-0.003208	-29.200000	-5.400000
-0.003204	-26.400000	-5.000000
-0.003200	-23.600000	-4.400000
-0.003196	-20.400000	-3.800000
-0.003192	-17.600000	-3.200000
-0.003188	-14.800000	-2.800000
-0.003184	-12.000000	-2.200000
-0.003180	-9.200000	-1.800000
-0.003176	-6.400000	-1.400000
-0.003172	-3.600000	-0.800000
-0.003168	-0.400000	-0.200000
-0.003164	2.400000	0.200000
-0.003160	5.200000	0.800000
-0.003156	8.000000	1.200000
-0.003152	10.800000	1.800000
-0.003148	13.600000	2.200000
-0.003144	16.400000	2.800000
-0.003140	19.200000	3.200000
-0.003136	22.000000	3.800000
-0.003132	24.800000	4.600000
-0.003128	27.600000	5.200000
-0.003124	28.400000	5.400000
-0.003120	25.600000	4.800000
-0.003116	22.800000	4.200000
-0.003112	20.000000	3.600000
-0.003108	17.200000	3.200000
-0.003104	14.400000	2.600000
-0.003100	11.600000	2.200000
-0.003096	8.400000	1.600000
-0.003092	5.600000	1.200000
-0.003088	2.800000	0.800000
-0.003084	0.000000	0.200000
-0.003080	-2.800000	-0.200000
-0.003076	-5.600000	-0.800000
-0.003072	-8.400000	-1.400000
-0.003068	-11.200000	-1.800000
-0.003064	-14.000000	-2.400000
-0.003060	-17.200000	-2.800000
-0.003056	-20.000000	-3.400000
-0.003052	-22.800000	-4.000000
-0.003048	-25.600000	-4.600000
-0.003044	-28.400000	-5.200000
-0.003040	-27.600000	-5.200000
-0.003036	-24.800000	-4.600000
-0.003032	-22.400000	-4.200000
-0.003028	-19.200000	-3.600000
-0.003024	-16.400000	-3.000000
-0.003020	-13.600000	-2.600000
-0.003016	-10.800000	-2.000000
-0.003012	-8.000000	-1.600000
-0.003008	-5.200000	-1.200000
-0.003004	-2.000000	-0.600000
-0.003000	0.800000	0.000000
-0.002996	3.600000	0.400000
-0.002992	6.400000	1.000000
-0.002988	9.200000	1.400000
-0.002984	12.000000	2.000000
-0.002980	14.800000	2.400000
-0.002976	17.600000	3.000000
-0.002972	20.400000	3.600000
-0.002968	23.200000	4.200000
-0.002964	26.000000	4.800000
-0.002960	28.800000	5.400000
-0.002956	27.200000	5.200000
-0.002952	24.400000	4.600000
-0.002948	21.600000	4.000000
-0.002944	18.800000	3.400000
-0.002940	16.000000	3.000000
-0.002936	13.200000	2.600000
-0.002932	10.400000	2.000000
-0.002928	7.200000	1.400000
-0.002924	4.800000	1.000000
-0.002920	1.600000	0.600000
-0.002916	-1.200000	0.000000
-0.002912	-4.000000	-0.400000
-0.002908	-6.800000	-1.000000
-0.002904	-9.600000	-1.400000
-0.002900	-12.400000	-2.000000
-0.002896	-15.200000	-2.600000
-0.002892	-18.400000	-3.000000
-0.002888	-21.200000	-3.600000
-0.002884	-24.000000	-4.200000
-0.002880	-26.800000	-5.000000
-0.002876	-29.200000	-5.400000
-0.002872	-26.400000	-5.000000
-0.002868	-23.600000	-4.400000
-0.002864	-20.800000	-4.000000
-0.002860	-18.000000	-3.400000
-0.002856	-15.200000	-2.800000
-0.002852	-12.400000	-2.400000
-0.002848	-9.600000	-1.800000
-0.002844	-6.800000	-1.400000
-0.002840	-4.000000	-1.000000
-0.002836	-0.800000	-0.400000
-0.002832	1.600000	0.200000
-0.002828	4.800000	0.600000
-0.002824	7.600000	1.000000
-0.002820	10.400000	1.600000
-0.002816	13.200000	2.200000
-0.002812	16.000000	2.600000
-0.002808	18.800000	3.200000
-0.002804	21.600000	3.800000
-0.002800	24.400000	4.400000
-0.002796	27.200000	5.000000
-0.002792	29.200000	5.400000
-0.002788	26.000000	5.000000
-0.002784	23.200000	4.400000
-0.002780	20.400000	3.800000
-0.002776	17.600000	3.200000
-0.002772	14.800000	2.800000
-0.002768	12.000000	2.400000
-0.002764	9.200000	1.800000
-0.002760	6.400000	1.200000
-0.002756	3.600000	0.800000
-0.002752	0.400000	0.400000
-0.002748	-2.400000	-0.200000
-0.002744	-5.200000	-0.600000
-0.002740	-8.000000	-1.200000
-0.002736	-10.800000	-1.800000
-0.002732	-13.600000	-2.200000
-0.002728	-16.400000	-2.800000
-0.002724	-19.200000	-3.400000
-0.002720	-22.400000	-4.000000
-0.002716	-24.800000	-4.600000
-0.002712	-28.000000	-5.200000
-0.002708	-28.800000	-5.400000
-0.002704	-25.600000	-4.800000
-0.002700	-22.800000	-4.200000
-0.002696	-20.000000	-3.600000
-0.002692	-17.200000	-3.200000
-0.002688	-14.400000	-2.600000
-0.002684	-11.600000	-2.200000
-0.002680	-8.400000	-1.600000
-0.002676	-5.600000	-1.200000
-0.002672	-2.800000	-0.600000
-0.002668	0.000000	-0.200000
-0.002664	2.800000	0.400000
-0.002660	5.600000	0.800000
-0.002656	8.400000	1.200000
-0.002652	11.200000	1.800000
-0.002648	14.000000	2.400000
-0.002644	17.200000	2.800000
-0.002640	20.000000	3.400000
-0.002636	22.800000	4.000000
-0.002632	25.600000	4.600000
-0.002628	28.000000	5.200000
-0.002624	27.600000	5.200000
-0.002620	24.800000	4.600000
-0.002616	22.000000	4.200000
-0.002612	19.200000	3.600000
-0.002608	16.400000	3.000000
-0.002604	13.600000	2.600000
-0.002600	10.800000	2.000000
-0.002596	8.000000	1.600000
-0.002592	5.200000	1.200000
-0.002588	2.400000	0.600000
-0.002584	-0.400000	0.200000
-0.002580	-3.600000	-0.400000
-0.002576	-6.400000	-1.000000
-0.002572	-9.200000	-1.400000
-0.002568	-12.000000	-2.000000
-0.002564	-14.800000	-2.400000
-0.002560	-17.600000	-3.000000
-0.002556	-20.400000	-3.600000
-0.002552	-23.200000	-4.200000
-0.002548	-26.000000	-4.800000
-0.002544	-28.800000	-5.400000
-0.002540	-27.200000	-5.200000
-0.002536	-24.400000	-4.600000
-0.002532	-21.600000	-4.000000
-0.002528	-18.800000	-3.600000
-0.002524	-16.000000	-3.000000
-0.002520	-12.800000	-2.400000
-0.002516	-10.000000	-2.000000
-0.002512	-7.200000	-1.600000
-0.002508	-4.400000	-1.000000
-0.002504	-1.600000	-0.400000
-0.002500	1.200000	0.000000
-0.002496	4.000000	0.600000
-0.002492	6.800000	1.000000
-0.002488	9.600000	1.400000
-0.002484	12.400000	2.000000
-0.002480	15.600000	2.600000
-0.002476	18.000000	3.000000
-0.002472	20.800000	3.600000
-0.002468	24.000000	4.200000
-0.002464	26.400000	4.800000
-0.002460	28.800000	5.400000
-0.002456	26.400000	5.000000
-0.002452	23.600000	4.400000
-0.002448	20.800000	3.800000
-0.002444	18.000000	3.400000
-0.002440	15.200000	2.800000
-0.002436	12.400000	2.400000
-0.002432	9.600000	1.800000
-0.002428	6.800000	1.400000
-0.002424	4.000000	1.000000
-0.002420	1.200000	0.400000
-0.002416	-1.600000	0.000000
-0.002412	-4.800000	-0.600000
-0.002408	-7.600000	-1.200000
-0.002404	-10.400000	-1.600000
-0.002400	-13.200000	-2.200000
-0.002396	-16.000000	-2.600000
-0.002392	-18.800000	-3.200000
-0.002388	-21.600000	-3.800000
-0.002384	-24.400000	-4.400000
-0.002380	-27.200000	-5.000000
-0.002376	-29.200000	-5.400000
-0.002372	-26.400000	-5.000000
-0.002368	-23.200000	-4.400000
-0.002364	-20.400000	-3.800000
-0.002360	-17.600000	-3.200000
-0.002356	-14.800000	-2.800000
-0.002352	-12.000000	-2.200000
-0.002348	-9.200000	-1.800000
-0.002344	-6.400000	-1.400000
-0.002340	-3.600000	-0.800000
-0.002336	-0.400000	-0.200000
-0.002332	2.400000	0.200000
-0.002328	5.200000	0.800000
-0.002324	8.000000	1.200000
-0.002320	10.800000	1.800000
-0.002316	13.600000	2.200000
-0.002312	16.400000	2.800000
-0.002308	19.200000	3.200000
-0.002304	22.000000	3.800000
-0.002300	24.800000	4.600000
-0.002296	27.600000	5.200000
-0.002292	28.400000	5.400000
-0.002288	25.600000	4.800000
-0.002284	22.800000	4.200000
-0.002280	20.000000	3.600000
-0.002276	17.200000	3.000000
-0.002272	14.000000	2.600000
-0.002268	11.200000	2.200000
-0.002264	8.400000	1.600000
-0.002260	5.600000	1.200000
-0.002256	2.800000	0.800000
-0.002252	0.000000	0.200000
-0.002248	-2.800000	-0.200000
-0.002244	-6.000000	-0.800000
-0.002240	-8.400000	-1.400000
-0.002236	-11.600000	-1.800000
-0.002232	-14.400000	-2.400000
-0.002228	-17.200000	-2.800000
-0.002224	-20.000000	-3.400000
-0.002220	-22.800000	-4.000000
-0.002216	-25.600000	-4.600000
-0.002212	-28.400000	-5.400000
-0.002208	-27.600000	-5.200000
-0.002204	-24.800000	-4.600000
-0.002200	-22.000000	-4.200000
-0.002196	-19.200000	-3.600000
-0.002192	-16.400000	-3.000000
-0.002188	-13.600000	-2.600000
-0.002184	-10.800000	-2.000000
-0.002180	-8.000000	-1.600000
-0.002176	-5.200000	-1.200000
-0.002172	-2.000000	-0.600000
-0.002168	0.800000	0.000000
-0.002164	3.600000	0.400000
-0.002160	6.400000	1.000000
-0.002156	9.200000	1.400000
-0.002152	12.000000	2.000000
-0.002148	14.800000	2.400000
-0.002144	17.600000	3.000000
-0.002140	20.400000	3.600000
-0.002136	23.200000	4.200000
-0.002132	26.000000	4.800000
-0.002128	28.800000	5.400000
-0.002124	26.800000	5.200000
-0.002120	24.400000	4.600000
-0.002116	21.600000	4.000000
-0.002112	18.400000	3.400000
-0.002108	16.000000	3.000000
-0.002104	12.800000	2.400000
-0.002100	10.000000	2.000000
-0.002096	7.200000	1.400000
-0.002092	4.400000	1.000000
-0.002088	1.600000	0.600000
-0.002084	-1.200000	0.000000
-0.002080	-4.000000	-0.400000
-0.002076	-6.800000	-1.000000
-0.002072	-10.000000	-1.600000
-0.002068	-12.400000	-2.000000
-0.002064	-15.200000	-2.600000
-0.002060	-18.400000	-3.000000
-0.002056	-21.200000	-3.800000
-0.002052	-24.000000	-4.200000
-0.002048	-26.800000	-5.000000
-0.002044	-29.200000	-5.400000
-0.002040	-26.400000	-5.000000
-0.002036	-23.600000	-4.400000
-0.002032	-20.800000	-4.000000
-0.002028	-18.000000	-3.400000
-0.002024	-15.200000	-2.800000
-0.002020	-12.400000	-2.400000
-0.002016	-9.600000	-1.800000
-0.002012	-6.800000	-1.400000
-0.002008	-4.000000	-0.800000
-0.002004	-0.800000	-0.400000
-0.002000	1.600000	0.200000
-0.001996	4.800000	0.600000
-0.001992	7.600000	1.000000
-0.001988	10.400000	1.600000
-0.001984	13.200000	2.200000
-0.001980	16.000000	2.600000
-0.001976	18.800000	3.200000
-0.001972	21.600000	3.800000
-0.001968	24.400000	4.400000
-0.001964	27.200000	5.000000
-0.001960	28.800000	5.400000
-0.001956	26.000000	4.800000
-0.001952	23.200000	4.400000
-0.001948	20.400000	3.800000
-0.001944	17.600000	3.200000
-0.001940	14.800000	2.800000
-0.001936	12.000000	2.200000
-0.001932	9.200000	1.800000
-0.001928	6.400000	1.200000
-0.001924	3.600000	0.800000
-0.001920	0.400000	0.400000
-0.001916	-2.400000	-0.200000
-0.001912	-5.200000	-0.600000
-0.001908	-8.000000	-1.200000
-0.001904	-10.800000	-1.800000
-0.001900	-13.600000	-2.200000
-0.001896	-16.400000	-2.800000
-0.001892	-19.200000	-3.400000
-0.001888	-22.400000	-4.000000
-0.001884	-24.800000	-4.600000
-0.001880	-28.000000	-5.200000
-0.001876	-28.400000	-5.400000
-0.001872	-25.600000	-4.800000
-0.001868	-22.800000	-4.200000
-0.001864	-20.000000	-3.800000
-0.001860	-17.200000	-3.200000
-0.001856	-14.400000	-2.600000
-0.001852	-11.600000	-2.200000
-0.001848	-8.400000	-1.600000
-0.001844	-5.600000	-1.200000
-0.001840	-2.800000	-0.600000
-0.001836	0.000000	-0.200000
-0.001832	2.800000	0.400000
-0.001828	5.600000	0.800000
-0.001824	8.800000	1.200000
-0.001820	11.600000	1.800000
-0.001816	14.400000	2.400000
-0.001812	17.200000	2.800000
-0.001808	20.000000	3.400000
-0.001804	22.800000	4.000000
-0.001800	25.600000	4.600000
-0.001796	28.400000	5.200000
-0.001792	27.600000	5.200000
-0.001788	24.800000	4.600000
-0.001784	22.000000	4.000000
-0.001780	19.200000	3.600000
-0.001776	16.400000	3.000000
-0.001772	13.600000	2.600000
-0.001768	10.800000	2.000000
-0.001764	8.000000	1.600000
-0.001760	5.200000	1.200000
-0.001756	2.000000	0.600000
-0.001752	-0.800000	0.200000
-0.001748	-3.600000	-0.400000
-0.001744	-6.400000	-1.000000
-0.001740	-9.200000	-1.400000
-0.001736	-12.000000	-2.000000
-0.001732	-14.800000	-2.400000
-0.001728	-17.600000	-3.000000
-0.001724	-20.400000	-3.600000
-0.001720	-23.200000	-4.200000
-0.001716	-26.000000	-4.800000
-0.001712	-28.800000	-5.400000
-0.001708	-27.200000	-5.200000
-0.001704	-24.400000	-4.600000
-0.001700	-21.200000	-4.000000
-0.001696	-18.800000	-3.600000
-0.001692	-15.600000	-3.000000
-0.001688	-12.800000	-2.400000
-0.001684	-10.000000	-2.000000
-0.001680	-7.200000	-1.400000
-0.001676	-4.400000	-1.000000
-0.001672	-1.600000	-0.400000
-0.001668	1.200000	0.000000
-0.001664	4.000000	0.600000
-0.001660	6.800000	1.000000
-0.001656	9.600000	1.400000
-0.001652	12.400000	2.000000
-0.001648	15.600000	2.600000
-0.001644	18.000000	3.000000
-0.001640	20.800000	3.600000
-0.001636	24.000000	4.200000
-0.001632	26.400000	5.000000
-0.001628	28.800000	5.400000
-0.001624	26.400000	5.000000
-0.001620	23.600000	4.400000
-0.001616	20.800000	3.800000
-0.001612	18.000000	3.400000
-0.001608	15.200000	2.800000
-0.001604	12.400000	2.400000
-0.001600	9.600000	1.800000
-0.001596	6.800000	1.400000
-0.001592	4.000000	1.000000
-0.001588	1.200000	0.400000
-0.001584	-1.600000	0.000000
-0.001580	-4.800000	-0.600000
-0.001576	-7.600000	-1.200000
-0.001572	-10.400000	-1.600000
-0.001568	-13.200000	-2.200000
-0.001564	-16.000000	-2.600000
-0.001560	-18.800000	-3.200000
-0.001556	-21.600000	-3.800000
-0.001552	-24.400000	-4.400000
-0.001548	-27.200000	-5.000000
-0.001544	-29.200000	-5.400000
-0.001540	-26.400000	-5.000000
-0.001536	-23.200000	-4.400000
-0.001532	-20.400000	-3.800000
-0.001528	-17.600000	-3.200000
-0.001524	-14.800000	-2.800000
-0.001520	-12.000000	-2.200000
-0.001516	-9.200000	-1.800000
-0.001512	-6.400000	-1.400000
-0.001508	-3.200000	-0.800000
-0.001504	-0.400000	-0.200000
-0.001500	2.400000	0.200000
-0.001496	5.200000	0.800000
-0.001492	8.000000	1.200000
-0.001488	10.800000	1.800000
-0.001484	13.600000	2.200000
-0.001480	16.400000	2.800000
-0.001476	19.200000	3.200000
-0.001472	22.000000	3.800000
-0.001468	24.800000	4.400000
-0.001464	28.000000	5.200000
-0.001460	28.400000	5.200000
-0.001456	25.600000	4.800000
-0.001452	22.800000	4.200000
-0.001448	19.600000	3.600000
-0.001444	16.800000	3.000000
-0.001440	14.000000	2.600000
-0.001436	11.200000	2.200000
-0.001432	8.400000	1.600000
-0.001428	5.600000	1.200000
-0.001424	2.800000	0.800000
-0.001420	0.000000	0.200000
-0.001416	-2.800000	-0.200000
-0.001412	-6.000000	-0.800000
-0.001408	-8.800000	-1.400000
-0.001404	-11.600000	-1.800000
-0.001400	-14.400000	-2.400000
-0.001396	-17.200000	-2.800000
-0.001392	-20.000000	-3.400000
-0.001388	-22.800000	-4.000000
-0.001384	-25.600000	-4.600000
-0.001380	-28.400000	-5.400000
-0.001376	-27.600000	-5.200000
-0.001372	-24.800000	-4.600000
-0.001368	-22.000000	-4.200000
-0.001364	-19.200000	-3.600000
-0.001360	-16.400000	-3.000000
-0.001356	-13.600000	-2.600000
-0.001352	-10.800000	-2.000000
-0.001348	-8.000000	-1.600000
-0.001344	-5.200000	-1.200000
-0.001340	-2.000000	-0.600000
-0.001336	0.800000	0.000000
-0.001332	3.600000	0.400000
-0.001328	6.400000	1.000000
-0.001324	9.200000	1.400000
-0.001320	12.000000	2.000000
-0.001316	14.800000	2.400000
-0.001312	17.600000	3.000000
-0.001308	20.400000	3.600000
-0.001304	23.200000	4.200000
-0.001300	26.000000	4.800000
-0.001296	28.800000	5.400000
-0.001292	26.800000	5.200000
-0.001288	24.000000	4.600000
-0.001284	21.600000	4.000000
-0.001280	18.400000	3.400000
-0.001276	15.600000	3.000000
-0.001272	12.800000	2.400000
-0.001268	10.000000	2.000000
-0.001264	7.200000	1.400000
-0.001260	4.400000	1.000000
-0.001256	1.600000	0.600000
-0.001252	-1.200000	0.000000
-0.001248	-4.000000	-0.400000
-0.001244	-6.800000	-1.000000
-0.001240	-10.000000	-1.600000
-0.001236	-12.800000	-2.000000
-0.001232	-15.600000	-2.600000
-0.001228	-18.400000	-3.200000
-0.001224	-21.200000	-3.800000
-0.001220	-24.000000	-4.400000
-0.001216	-26.800000	-5.000000
-0.001212	-29.200000	-5.400000
-0.001208	-26.400000	-5.000000
-0.001204	-23.600000	-4.400000
-0.001200	-20.800000	-4.000000
-0.001196	-18.000000	-3.400000
-0.001192	-15.200000	-2.800000
-0.001188	-12.400000	-2.400000
-0.001184	-9.600000	-1.800000
-0.001180	-6.800000	-1.400000
-0.001176	-4.000000	-0.800000
-0.001172	-0.800000	-0.400000
-0.001168	1.600000	0.200000
-0.001164	4.800000	0.600000
-0.001160	7.600000	1.000000
-0.001156	10.400000	1.600000
-0.001152	13.200000	2.200000
-0.001148	16.000000	2.600000
-0.001144	18.800000	3.200000
-0.001140	21.600000	3.800000
-0.001136	24.400000	4.400000
-0.001132	27.200000	5.000000
-0.001128	28.800000	5.400000
-0.001124	26.000000	4.800000
-0.001120	23.200000	4.400000
-0.001116	20.400000	3.800000
-0.001112	17.600000	3.200000
-0.001108	14.800000	2.800000
-0.001104	12.000000	2.400000
-0.001100	9.200000	1.800000
-0.001096	6.000000	1.200000
-0.001092	3.200000	0.800000
-0.001088	0.400000	0.400000
-0.001084	-2.400000	-0.200000
-0.001080	-5.200000	-0.600000
-0.001076	-8.000000	-1.200000
-0.001072	-10.800000	-1.800000
-0.001068	-13.600000	-2.200000
-0.001064	-16.400000	-2.800000
-0.001060	-19.200000	-3.400000
-0.001056	-22.400000	-4.000000
-0.001052	-25.200000	-4.600000
-0.001048	-28.000000	-5.200000
-0.001044	-28.400000	-5.400000
-0.001040	-25.600000	-4.800000
-0.001036	-22.800000	-4.200000
-0.001032	-20.000000	-3.600000
-0.001028	-17.200000	-3.200000
-0.001024	-14.000000	-2.600000
-0.001020	-11.200000	-2.200000
-0.001016	-8.400000	-1.600000
-0.001012	-5.600000	-1.200000
-0.001008	-2.800000	-0.600000
-0.001004	0.000000	-0.200000
-0.001000	2.800000	0.400000
-0.000996	5.600000	0.800000
-0.000992	8.800000	1.200000
-0.000988	11.600000	1.800000
-0.000984	14.400000	2.400000
-0.000980	17.200000	2.800000
-0.000976	20.000000	3.400000
-0.000972	22.800000	4.000000
-0.000968	25.600000	4.600000
-0.000964	28.400000	5.200000
-0.000960	27.600000	5.200000
-0.000956	24.800000	4.600000
-0.000952	22.000000	4.000000
-0.000948	19.200000	3.600000
-0.000944	16.400000	3.000000
-0.000940	13.600000	2.600000
-0.000936	10.800000	2.000000
-0.000932	8.000000	1.600000
-0.000928	5.200000	1.200000
-0.000924	2.000000	0.600000
-0.000920	-0.800000	0.200000
-0.000916	-3.600000	-0.400000
-0.000912	-6.400000	-1.000000
-0.000908	-9.200000	-1.400000
-0.000904	-12.000000	-2.000000
-0.000900	-14.800000	-2.400000
-0.000896	-17.600000	-3.000000
-0.000892	-20.400000	-3.600000
-0.000888	-23.200000	-4.200000
-0.000884	-26.000000	-4.800000
-0.000880	-28.800000	-5.400000
-0.000876	-27.200000	-5.200000
-0.000872	-24.000000	-4.600000
-0.000868	-21.200000	-4.000000
-0.000864	-18.400000	-3.400000
-0.000860	-15.600000	-3.000000
-0.000856	-12.800000	-2.400000
-0.000852	-10.000000	-2.000000
-0.000848	-7.200000	-1.400000
-0.000844	-4.400000	-1.000000
-0.000840	-1.600000	-0.400000
-0.000836	1.200000	0.000000
-0.000832	4.000000	0.600000
-0.000828	6.800000	1.000000
-0.000824	9.600000	1.600000
-0.000820	12.800000	2.000000
-0.000816	15.600000	2.600000
-0.000812	18.400000	3.000000
-0.000808	21.200000	3.600000
-0.000804	24.000000	4.200000
-0.000800	26.800000	4.800000
-0.000796	29.200000	5.400000
-0.000792	26.400000	5.000000
-0.000788	23.600000	4.400000
-0.000784	20.800000	3.800000
-0.000780	18.000000	3.400000
-0.000776	15.200000	2.800000
-0.000772	12.400000	2.400000
-0.000768	9.600000	1.800000
-0.000764	6.800000	1.400000
-0.000760	4.000000	1.000000
-0.000756	1.200000	0.400000
-0.000752	-1.600000	0.000000
-0.000748	-4.800000	-0.600000
-0.000744	-7.600000	-1.200000
-0.000740	-10.400000	-1.600000
-0.000736	-13.200000	-2.200000
-0.000732	-16.000000	-2.600000
-0.000728	-18.800000	-3.200000
-0.000724	-21.600000	-3.800000
-0.000720	-24.400000	-4.400000
-0.000716	-27.200000	-5.000000
-0.000712	-29.200000	-5.400000
-0.000708	-26.000000	-5.000000
-0.000704	-23.200000	-4.400000
-0.000700	-20.400000	-3.800000
-0.000696	-17.600000	-3.200000
-0.000692	-14.800000	-2.800000
-0.000688	-12.000000	-2.200000
-0.000684	-8.800000	-1.800000
-0.000680	-6.000000	-1.200000
-0.000676	-3.200000	-0.800000
-0.000672	-0.400000	-0.200000
-0.000668	2.400000	0.200000
-0.000664	5.200000	0.800000
-0.000660	8.000000	1.200000
-0.000656	10.800000	1.800000
-0.000652	13.600000	2.200000
-0.000648	16.800000	2.800000
-0.000644	19.200000	3.400000
-0.000640	22.400000	3.800000
-0.000636	24.800000	4.600000
-0.000632	27.600000	5.200000
-0.000628	28.400000	5.200000
-0.000624	25.600000	4.800000
-0.000620	22.800000	4.200000
-0.000616	19.600000	3.600000
-0.000612	17.200000	3.000000
-0.000608	14.000000	2.600000
-0.000604	11.200000	2.200000
-0.000600	8.400000	1.600000
-0.000596	5.600000	1.200000
-0.000592	2.800000	0.800000
-0.000588	0.000000	0.200000
-0.000584	-2.800000	-0.200000
-0.000580	-6.000000	-0.800000
-0.000576	-8.800000	-1.400000
-0.000572	-11.600000	-1.800000
-0.000568	-14.400000	-2.400000
-0.000564	-17.200000	-2.800000
-0.000560	-20.000000	-3.400000
-0.000556	-22.800000	-4.000000
-0.000552	-25.600000	-4.600000
-0.000548	-28.400000	-5.400000
-0.000544	-27.600000	-5.200000
-0.000540	-24.800000	-4.600000
-0.000536	-22.000000	-4.200000
-0.000532	-19.200000	-3.600000
-0.000528	-16.400000	-3.000000
-0.000524	-13.600000	-2.600000
-0.000520	-10.800000	-2.000000
-0.000516	-8.000000	-1.600000
-0.000512	-5.200000	-1.000000
-0.000508	-2.000000	-0.600000
-0.000504	0.800000	0.000000
-0.000500	3.600000	0.400000
-0.000496	6.400000	1.000000
-0.000492	9.200000	1.400000
-0.000488	12.000000	2.000000
-0.000484	14.800000	2.400000
-0.000480	17.600000	3.000000
-0.000476	20.400000	3.600000
-0.000472	23.200000	4.200000
-0.000468	26.000000	4.800000
-0.000464	28.800000	5.400000
-0.000460	26.800000	5.000000
-0.000456	24.000000	4.600000
-0.000452	21.200000	4.000000
-0.000448	18.400000	3.400000
-0.000444	15.600000	3.000000
-0.000440	12.800000	2.400000
-0.000436	10.000000	2.000000
-0.000432	7.200000	1.400000
-0.000428	4.400000	1.000000
-0.000424	1.600000	0.600000
-0.000420	-1.200000	0.000000
-0.000416	-4.000000	-0.400000
-0.000412	-7.200000	-1.000000
-0.000408	-10.000000	-1.600000
-0.000404	-12.800000	-2.000000
-0.000400	-15.600000	-2.600000
-0.000396	-18.400000	-3.200000
-0.000392	-21.200000	-3.800000
-0.000388	-24.000000	-4.400000
-0.000384	-26.800000	-5.000000
-0.000380	-29.200000	-5.600000
-0.000376	-26.400000	-5.000000
-0.000372	-23.600000	-4.400000
-0.000368	-20.800000	-3.800000
-0.000364	-18.000000	-3.400000
-0.000360	-15.200000	-2.800000
-0.000356	-12.400000	-2.400000
-0.000352	-9.600000	-1.800000
-0.000348	-6.800000	-1.400000
-0.000344	-4.000000	-0.800000
-0.000340	-0.800000	-0.400000
-0.000336	2.000000	0.200000
-0.000332	4.800000	0.600000
-0.000328	7.600000	1.000000
-0.000324	10.400000	1.600000
-0.000320	13.200000	2.200000
-0.000316	16.000000	2.600000
-0.000312	18.800000	3.200000
-0.000308	21.600000	3.800000
-0.000304	24.400000	4.400000
-0.000300	27.200000	5.000000
-0.000296	28.800000	5.400000
-0.000292	26.000000	4.800000
-0.000288	23.200000	4.400000
-0.000284	20.400000	3.800000
-0.000280	17.600000	3.200000
-0.000276	14.800000	2.800000
-0.000272	12.000000	2.200000
-0.000268	9.200000	1.800000
-0.000264	6.000000	1.200000
-0.000260	3.200000	0.800000
-0.000256	0.400000	0.400000
-0.000252	-2.400000	-0.200000
-0.000248	-5.200000	-0.800000
-0.000244	-8.000000	-1.200000
-0.000240	-11.200000	-1.800000
-0.000236	-14.000000	-2.200000
-0.000232	-16.800000	-2.800000
-0.000228	-19.600000	-3.400000
-0.000224	-22.400000	-4.000000
-0.000220	-25.200000	-4.600000
-0.000216	-28.000000	-5.200000
-0.000212	-28.400000	-5.400000
-0.000208	-25.600000	-4.800000
-0.000204	-22.800000	-4.200000
-0.000200	-20.000000	-3.600000
-0.000196	-17.200000	-3.200000
-0.000192	-14.000000	-2.600000
-0.000188	-11.200000	-2.200000
-0.000184	-8.400000	-1.600000
-0.000180	-5.600000	-1.200000
-0.000176	-2.800000	-0.600000
-0.000172	0.000000	-0.200000
-0.000168	2.800000	0.400000
-0.000164	6.000000	0.800000
-0.000160	8.800000	1.200000
-0.000156	11.600000	1.800000
-0.000152	14.400000	2.400000
-0.000148	17.200000	2.800000
-0.000144	20.000000	3.400000
-0.000140	22.800000	4.000000
-0.000136	25.600000	4.600000
-0.000132	28.400000	5.200000
-0.000128	27.600000	5.200000
-0.000124	24.800000	4.600000
-0.000120	22.000000	4.200000
-0.000116	19.200000	3.600000
-0.000112	16.400000	3.000000
-0.000108	13.600000	2.600000
-0.000104	10.800000	2.000000
-0.000100	8.000000	1.600000
-9.600000E-5	5.200000	1.200000
-9.200000E-5	2.000000	0.600000
-8.800000E-5	-0.800000	0.200000
-8.400000E-5	-3.600000	-0.400000
-8.000000E-5	-6.400000	-1.000000
-7.600000E-5	-9.200000	-1.400000
-7.200000E-5	-12.000000	-2.000000
-6.800000E-5	-14.800000	-2.400000
-6.400000E-5	-17.600000	-3.000000
-6.000000E-5	-20.400000	-3.600000
-5.600000E-5	-23.200000	-4.200000
-5.200000E-5	-26.000000	-4.800000
-4.800000E-5	-28.800000	-5.400000
-4.400000E-5	-26.800000	-5.200000
-4.000000E-5	-24.000000	-4.600000
-3.600000E-5	-21.200000	-4.000000
-3.200000E-5	-18.400000	-3.400000
-2.800000E-5	-15.600000	-3.000000
-2.400000E-5	-12.800000	-2.400000
-2.000000E-5	-10.000000	-2.000000
-1.600000E-5	-7.200000	-1.400000
-1.200000E-5	-4.400000	-1.000000
-8.000000E-6	-1.600000	-0.400000
-4.000000E-6	1.200000	0.000000
0.000000	4.400000	0.600000
4.000000E-6	6.800000	1.000000
8.000000E-6	10.000000	1.600000
1.200000E-5	12.800000	2.000000
1.600000E-5	15.600000	2.600000
2.000000E-5	18.400000	3.000000
2.400000E-5	21.200000	3.600000
2.800000E-5	24.000000	4.200000
3.200000E-5	26.800000	5.000000
3.600000E-5	29.200000	5.400000
4.000000E-5	26.400000	5.000000
4.400000E-5	23.600000	4.400000
4.800000E-5	20.800000	3.800000
5.200000E-5	18.000000	3.200000
5.600000E-5	15.200000	2.800000
6.000000E-5	12.400000	2.400000
6.400000E-5	9.600000	1.800000
6.800000E-5	6.800000	1.400000
7.200000E-5	4.000000	1.000000
7.600000E-5	0.800000	0.400000
8.000000E-5	-1.600000	0.000000
8.400000E-5	-4.800000	-0.600000
8.800000E-5	-7.600000	-1.200000
9.200000E-5	-10.400000	-1.600000
9.600000E-5	-13.200000	-2.200000
1.000000E-4	-16.000000	-2.600000
0.000104	-18.800000	-3.200000
0.000108	-21.600000	-3.800000
0.000112	-24.400000	-4.400000
0.000116	-27.200000	-5.000000
0.000120	-29.200000	-5.400000
0.000124	-26.000000	-4.800000
0.000128	-23.200000	-4.400000
0.000132	-20.400000	-3.800000
0.000136	-17.600000	-3.200000
0.000140	-14.800000	-2.800000
0.000144	-11.600000	-2.200000
0.000148	-8.800000	-1.800000
0.000152	-6.000000	-1.200000
0.000156	-3.200000	-0.800000
0.000160	-0.400000	-0.200000
0.000164	2.400000	0.200000
0.000168	5.200000	0.800000
0.000172	8.000000	1.200000
0.000176	10.800000	1.800000
0.000180	13.600000	2.200000
0.000184	16.800000	2.800000
0.000188	19.200000	3.400000
0.000192	22.000000	4.000000
0.000196	24.800000	4.600000
0.000200	28.000000	5.200000
0.000204	28.400000	5.200000
0.000208	25.600000	4.800000
0.000212	22.800000	4.200000
0.000216	19.600000	3.600000
0.000220	16.800000	3.000000
0.000224	14.000000	2.600000
0.000228	11.200000	2.200000
0.000232	8.400000	1.600000
0.000236	5.600000	1.200000
0.000240	2.800000	0.800000
0.000244	0.000000	0.200000
0.000248	-3.200000	-0.200000
0.000252	-6.000000	-0.800000
0.000256	-8.800000	-1.400000
0.000260	-11.600000	-1.800000
0.000264	-14.400000	-2.400000
0.000268	-17.200000	-2.800000
0.000272	-20.000000	-3.400000
0.000276	-22.800000	-4.000000
0.000280	-25.600000	-4.600000
0.000284	-28.400000	-5.400000
0.000288	-27.600000	-5.200000
0.000292	-24.800000	-4.600000
0.000296	-22.000000	-4.200000
0.000300	-19.200000	-3.600000
0.000304	-16.400000	-3.000000
0.000308	-13.600000	-2.600000
0.000312	-10.800000	-2.000000
0.000316	-8.000000	-1.600000
0.000320	-5.200000	-1.000000
0.000324	-2.000000	-0.600000
0.000328	0.800000	0.000000
0.000332	3.600000	0.400000
0.000336	6.400000	1.000000
0.000340	9.200000	1.400000
0.000344	12.000000	2.000000
0.000348	14.800000	2.400000
0.000352	17.600000	3.000000
0.000356	20.400000	3.600000
0.000360	23.200000	4.200000
0.000364	26.000000	4.800000
0.000368	28.800000	5.400000
0.000372	26.800000	5.000000
0.000376	24.000000	4.600000
0.000380	21.200000	4.000000
0.000384	18.400000	3.400000
0.000388	15.600000	3.000000
0.000392	12.800000	2.400000
0.000396	10.000000	2.000000
0.000400	7.200000	1.400000
0.000404	4.400000	1.000000
0.000408	1.600000	0.600000
0.000412	-1.200000	0.000000
0.000416	-4.400000	-0.400000
0.000420	-6.800000	-1.000000
0.000424	-10.000000	-1.600000
0.000428	-12.800000	-2.000000
0.000432	-15.600000	-2.600000
0.000436	-18.400000	-3.200000
0.000440	-21.200000	-3.800000
0.000444	-24.000000	-4.400000
0.000448	-26.800000	-5.000000
0.000452	-29.200000	-5.600000
0.000456	-26.400000	-5.000000
0.000460	-23.600000	-4.400000
0.000464	-20.800000	-4.000000
0.000468	-18.000000	-3.400000
0.000472	-15.200000	-2.800000
0.000476	-12.400000	-2.400000
0.000480	-9.600000	-1.800000
0.000484	-6.800000	-1.400000
0.000488	-4.000000	-0.800000
0.000492	-0.800000	-0.400000
0.000496	2.000000	0.200000
0.000500	4.800000	0.600000
0.000504	7.600000	1.200000
0.000508	10.400000	1.600000
0.000512	13.200000	2.200000
0.000516	16.000000	2.600000
0.000520	18.800000	3.200000
0.000524	21.600000	3.800000
0.000528	24.400000	4.400000
0.000532	27.200000	5.000000
0.000536	28.800000	5.400000
0.000540	26.000000	4.800000
0.000544	23.200000	4.200000
0.000548	20.400000	3.800000
0.000552	17.600000	3.200000
0.000556	14.800000	2.800000
0.000560	12.000000	2.200000
0.000564	9.200000	1.800000
0.000568	6.000000	1.200000
0.000572	3.200000	0.800000
0.000576	0.400000	0.400000
0.000580	-2.400000	-0.200000
0.000584	-5.200000	-0.800000
0.000588	-8.000000	-1.200000
0.000592	-11.200000	-1.800000
0.000596	-14.000000	-2.200000
0.000600	-16.800000	-2.800000
0.000604	-19.600000	-3.400000
0.000608	-22.400000	-4.000000
0.000612	-25.200000	-4.600000
0.000616	-28.000000	-5.200000
0.000620	-28.400000	-5.400000
0.000624	-25.600000	-4.800000
0.000628	-22.800000	-4.200000
0.000632	-20.000000	-3.600000
0.000636	-17.200000	-3.200000
0.000640	-14.000000	-2.600000
0.000644	-11.200000	-2.200000
0.000648	-8.400000	-1.600000
0.000652	-5.600000	-1.200000
0.000656	-2.800000	-0.600000
0.000660	0.400000	-0.200000
0.000664	3.200000	0.400000
0.000668	6.000000	0.800000
0.000672	8.800000	1.200000
0.000676	11.600000	1.800000
0.000680	14.400000	2.400000
0.000684	17.200000	2.800000
0.000688	20.000000	3.400000
0.000692	22.800000	4.000000
0.000696	25.600000	4.600000
0.000700	28.400000	5.200000
0.000704	27.600000	5.200000
0.000708	24.800000	4.600000
0.000712	22.000000	4.000000
0.000716	19.200000	3.600000
0.000720	16.400000	3.000000
0.000724	13.600000	2.600000
0.000728	10.800000	2.000000
0.000732	7.600000	1.600000
0.000736	5.200000	1.000000
0.000740	2.000000	0.600000
0.000744	-0.800000	0.200000
0.000748	-3.600000	-0.400000
0.000752	-6.400000	-1.000000
0.000756	-9.200000	-1.400000
0.000760	-12.000000	-2.000000
0.000764	-14.800000	-2.400000
0.000768	-18.000000	-3.000000
0.000772	-20.800000	-3.600000
0.000776	-23.600000	-4.200000
0.000780	-26.400000	-4.800000
0.000784	-28.800000	-5.400000
0.000788	-26.800000	-5.200000
0.000792	-24.000000	-4.600000
0.000796	-21.200000	-4.000000
0.000800	-18.400000	-3.400000
0.000804	-15.600000	-3.000000
0.000808	-12.800000	-2.400000
0.000812	-10.000000	-2.000000
0.000816	-7.200000	-1.400000
0.000820	-4.400000	-1.000000
0.000824	-1.200000	-0.400000
0.000828	1.200000	0.000000
0.000832	4.400000	0.600000
0.000836	7.200000	1.000000
0.000840	10.000000	1.600000
0.000844	12.800000	2.000000
0.000848	15.600000	2.600000
0.000852	18.400000	3.000000
0.000856	21.200000	3.600000
0.000860	24.000000	4.200000
0.000864	26.800000	5.000000
0.000868	29.200000	5.400000
0.000872	26.400000	5.000000
0.000876	23.600000	4.400000
0.000880	20.800000	3.800000
0.000884	18.000000	3.200000
0.000888	15.200000	2.800000
0.000892	12.400000	2.400000
0.000896	9.600000	1.800000
0.000900	6.800000	1.400000
0.000904	3.600000	1.000000
0.000908	0.800000	0.400000
0.000912	-2.000000	0.000000
0.000916	-4.800000	-0.600000
0.000920	-7.600000	-1.200000
0.000924	-10.400000	-1.600000
0.000928	-13.200000	-2.200000
0.000932	-16.000000	-2.600000
0.000936	-18.800000	-3.200000
0.000940	-21.600000	-3.800000
0.000944	-24.400000	-4.400000
0.000948	-27.200000	-5.000000
0.000952	-29.200000	-5.400000
0.000956	-26.000000	-4.800000
0.000960	-23.200000	-4.400000
0.000964	-20.400000	-3.800000
0.000968	-17.600000	-3.200000
0.000972	-14.800000	-2.800000
0.000976	-12.000000	-2.200000
0.000980	-8.800000	-1.800000
0.000984	-6.000000	-1.200000
0.000988	-3.200000	-0.800000
0.000992	-0.400000	-0.200000
0.000996	2.400000	0.200000
0.001000	5.200000	0.800000
0.001004	8.000000	1.200000
0.001008	11.200000	1.800000
0.001012	14.000000	2.200000
0.001016	16.800000	2.800000
0.001020	19.200000	3.400000
0.001024	22.400000	4.000000
0.001028	25.200000	4.600000
0.001032	28.000000	5.200000
0.001036	28.400000	5.200000
0.001040	25.600000	4.800000
0.001044	22.400000	4.200000
0.001048	19.600000	3.600000
0.001052	16.800000	3.000000
0.001056	14.000000	2.600000
0.001060	11.200000	2.200000
0.001064	8.400000	1.600000
0.001068	5.600000	1.200000
0.001072	2.400000	0.800000
0.001076	0.000000	0.200000
0.001080	-3.200000	-0.200000
0.001084	-6.000000	-0.800000
0.001088	-8.800000	-1.400000
0.001092	-11.600000	-1.800000
0.001096	-14.400000	-2.400000
0.001100	-17.200000	-2.800000
0.001104	-20.000000	-3.600000
0.001108	-22.800000	-4.000000
0.001112	-25.600000	-4.600000
0.001116	-28.400000	-5.400000
0.001120	-27.600000	-5.200000
0.001124	-24.800000	-4.600000
0.001128	-22.000000	-4.200000
0.001132	-19.200000	-3.600000
0.001136	-16.400000	-3.000000
0.001140	-13.600000	-2.600000
0.001144	-10.800000	-2.000000
0.001148	-7.600000	-1.600000
0.001152	-5.200000	-1.000000
0.001156	-2.000000	-0.600000
0.001160	0.800000	0.000000
0.001164	3.600000	0.400000
0.001168	6.400000	1.000000
0.001172	9.200000	1.400000
0.001176	12.000000	2.000000
0.001180	14.800000	2.400000
0.001184	17.600000	3.000000
0.001188	20.400000	3.600000
0.001192	23.200000	4.200000
0.001196	26.000000	4.800000
0.001200	28.800000	5.400000
0.001204	26.800000	5.000000
0.001208	24.000000	4.400000
0.001212	21.200000	4.000000
0.001216	18.400000	3.400000
0.001220	15.600000	2.800000
0.001224	12.800000	2.400000
0.001228	10.000000	2.000000
0.001232	7.200000	1.400000
0.001236	4.400000	1.000000
0.001240	1.600000	0.400000
0.001244	-1.200000	0.000000
0.001248	-4.400000	-0.400000
0.001252	-7.200000	-1.000000
0.001256	-10.000000	-1.600000
0.001260	-12.800000	-2.000000
0.001264	-15.600000	-2.600000
0.001268	-18.400000	-3.200000
0.001272	-21.200000	-3.800000
0.001276	-24.000000	-4.400000
0.001280	-26.800000	-5.000000
0.001284	-29.200000	-5.400000
0.001288	-26.400000	-5.000000
0.001292	-23.600000	-4.400000
0.001296	-20.800000	-3.800000
0.001300	-18.000000	-3.400000
0.001304	-15.200000	-2.800000
0.001308	-12.400000	-2.400000
0.001312	-9.600000	-1.800000
0.001316	-6.400000	-1.400000
0.001320	-3.600000	-0.800000
0.001324	-0.800000	-0.400000
0.001328	2.000000	0.200000
0.001332	4.800000	0.600000
0.001336	7.600000	1.200000
0.001340	10.400000	1.600000
0.001344	13.200000	2.200000
0.001348	16.000000	2.600000
0.001352	18.800000	3.200000
0.001356	21.600000	3.800000
0.001360	24.400000	4.400000
0.001364	27.200000	5.000000
0.001368	28.800000	5.400000
0.001372	26.000000	4.800000
0.001376	23.200000	4.200000
0.001380	20.400000	3.800000
0.001384	17.600000	3.200000
0.001388	14.800000	2.800000
0.001392	12.000000	2.200000
0.001396	8.800000	1.800000
0.001400	6.000000	1.200000
0.001404	3.200000	0.800000
0.001408	0.400000	0.400000
0.001412	-2.400000	-0.200000
0.001416	-5.600000	-0.800000
0.001420	-8.400000	-1.200000
0.001424	-11.200000	-1.800000
0.001428	-14.000000	-2.200000
0.001432	-16.800000	-2.800000
0.001436	-19.600000	-3.400000
0.001440	-22.400000	-4.000000
0.001444	-25.200000	-4.600000
0.001448	-28.000000	-5.200000
0.001452	-28.400000	-5.400000
0.001456	-25.600000	-4.800000
0.001460	-22.800000	-4.200000
0.001464	-19.600000	-3.600000
0.001468	-17.200000	-3.200000
0.001472	-14.000000	-2.600000
0.001476	-11.200000	-2.200000
0.001480	-8.400000	-1.600000
0.001484	-5.600000	-1.200000
0.001488	-2.800000	-0.600000
0.001492	0.400000	-0.200000
0.001496	3.200000	0.400000
0.001500	6.000000	0.800000
0.001504	8.800000	1.200000
0.001508	11.600000	1.800000
0.001512	14.400000	2.400000
0.001516	17.200000	2.800000
0.001520	20.000000	3.400000
0.001524	22.800000	4.000000
0.001528	25.600000	4.600000
0.001532	28.400000	5.200000
0.001536	27.600000	5.200000
0.001540	24.800000	4.600000
0.001544	22.000000	4.000000
0.001548	19.200000	3.600000
0.001552	16.400000	3.000000
0.001556	13.600000	2.600000
0.001560	10.400000	2.000000
0.001564	7.600000	1.600000
0.001568	4.800000	1.000000
0.001572	2.000000	0.600000
0.001576	-0.800000	0.200000
0.001580	-3.600000	-0.400000
0.001584	-6.400000	-1.000000
0.001588	-9.200000	-1.400000
0.001592	-12.000000	-2.000000
0.001596	-14.800000	-2.400000
0.001600	-18.000000	-3.000000
0.001604	-20.800000	-3.600000
0.001608	-23.600000	-4.200000
0.001612	-26.400000	-4.800000
0.001616	-28.800000	-5.400000
0.001620	-26.800000	-5.000000
0.001624	-24.000000	-4.600000
0.001628	-21.200000	-4.000000
0.001632	-18.400000	-3.400000
0.001636	-15.600000	-3.000000
0.001640	-12.800000	-2.400000
0.001644	-10.000000	-2.000000
0.001648	-7.200000	-1.400000
0.001652	-4.400000	-1.000000
0.001656	-1.200000	-0.400000
0.001660	1.200000	0.000000
0.001664	4.400000	0.600000
0.001668	7.200000	1.000000
0.001672	10.000000	1.600000
0.001676	12.800000	2.000000
0.001680	15.600000	2.600000
0.001684	18.400000	3.200000
0.001688	21.200000	3.600000
0.001692	24.000000	4.400000
0.001696	26.800000	5.000000
0.001700	29.200000	5.400000
0.001704	26.400000	5.000000
0.001708	23.600000	4.400000
0.001712	20.800000	3.800000
0.001716	18.000000	3.200000
0.001720	15.200000	2.800000
0.001724	12.400000	2.400000
0.001728	9.600000	1.800000
0.001732	6.800000	1.400000
0.001736	4.000000	1.000000
0.001740	0.800000	0.400000
0.001744	-2.000000	0.000000
0.001748	-4.800000	-0.600000
0.001752	-7.600000	-1.200000
0.001756	-10.400000	-1.600000
0.001760	-13.200000	-2.200000
0.001764	-16.000000	-2.600000
0.001768	-18.800000	-3.200000
0.001772	-22.000000	-3.800000
0.001776	-24.400000	-4.400000
0.001780	-27.200000	-5.000000
0.001784	-28.800000	-5.400000
0.001788	-26.000000	-4.800000
0.001792	-23.200000	-4.400000
0.001796	-20.400000	-3.800000
0.001800	-17.600000	-3.200000
0.001804	-14.400000	-2.800000
0.001808	-11.600000	-2.200000
0.001812	-8.800000	-1.800000
0.001816	-6.000000	-1.200000
0.001820	-3.200000	-0.800000
0.001824	-0.400000	-0.200000
0.001828	2.400000	0.200000
0.001832	5.600000	0.800000
0.001836	8.400000	1.200000
0.001840	11.200000	1.800000
0.001844	14.000000	2.200000
0.001848	16.800000	2.800000
0.001852	19.600000	3.400000
0.001856	22.400000	4.000000
0.001860	25.200000	4.600000
0.001864	28.000000	5.200000
0.001868	28.400000	5.400000
0.001872	25.200000	4.800000
0.001876	22.400000	4.200000
0.001880	19.600000	3.600000
0.001884	16.800000	3.000000
0.001888	14.000000	2.600000
0.001892	11.200000	2.200000
0.001896	8.400000	1.600000
0.001900	5.600000	1.200000
0.001904	2.800000	0.800000
0.001908	0.000000	0.200000
0.001912	-3.200000	-0.200000
0.001916	-6.000000	-0.800000
0.001920	-8.800000	-1.400000
0.001924	-11.600000	-1.800000
0.001928	-14.400000	-2.400000
0.001932	-17.200000	-2.800000
0.001936	-20.000000	-3.600000
0.001940	-22.800000	-4.000000
0.001944	-25.600000	-4.800000
0.001948	-28.400000	-5.400000
0.001952	-27.600000	-5.200000
0.001956	-24.800000	-4.600000
0.001960	-22.000000	-4.000000
0.001964	-19.200000	-3.600000
0.001968	-16.400000	-3.000000
0.001972	-13.600000	-2.600000
0.001976	-10.800000	-2.000000
0.001980	-7.600000	-1.600000
0.001984	-4.800000	-1.000000
0.001988	-2.000000	-0.600000
0.001992	0.800000	0.000000
0.001996	3.600000	0.400000
0.002000	6.400000	1.000000
0.002004	9.200000	1.400000
0.002008	12.000000	2.000000
0.002012	15.200000	2.400000
0.002016	18.000000	3.000000
0.002020	20.400000	3.600000
0.002024	23.200000	4.200000
0.002028	26.000000	4.800000
0.002032	28.800000	5.400000
0.002036	26.800000	5.000000
0.002040	24.000000	4.600000
0.002044	21.200000	4.000000
0.002048	18.400000	3.400000
0.002052	15.600000	2.800000
0.002056	12.800000	2.400000
0.002060	10.000000	2.000000
0.002064	7.200000	1.400000
0.002068	4.400000	1.000000
0.002072	1.200000	0.400000
0.002076	-1.200000	0.000000
0.002080	-4.400000	-0.400000
0.002084	-7.200000	-1.000000
0.002088	-10.000000	-1.600000
0.002092	-12.800000	-2.000000
0.002096	-15.600000	-2.600000
0.002100	-18.400000	-3.200000
0.002104	-21.200000	-3.800000
0.002108	-24.000000	-4.400000
0.002112	-26.800000	-5.000000
0.002116	-29.200000	-5.400000
0.002120	-26.400000	-5.000000
0.002124	-23.600000	-4.400000
0.002128	-20.800000	-3.800000
0.002132	-18.000000	-3.400000
0.002136	-15.200000	-2.800000
0.002140	-12.400000	-2.400000
0.002144	-9.600000	-1.800000
0.002148	-6.400000	-1.400000
0.002152	-3.600000	-0.800000
0.002156	-0.800000	-0.200000
0.002160	2.000000	0.200000
0.002164	4.800000	0.600000
0.002168	7.600000	1.200000
0.002172	10.400000	1.600000
0.002176	13.200000	2.200000
0.002180	16.000000	2.600000
0.002184	18.800000	3.200000
0.002188	21.600000	3.800000
0.002192	24.400000	4.400000
0.002196	27.200000	5.000000
0.002200	28.800000	5.400000
0.002204	26.000000	4.800000
0.002208	23.200000	4.200000
0.002212	20.400000	3.800000
0.002216	17.600000	3.200000
0.002220	14.800000	2.800000
0.002224	11.600000	2.200000
0.002228	8.800000	1.800000
0.002232	6.000000	1.200000
0.002236	3.200000	0.800000
0.002240	0.400000	0.400000
0.002244	-2.400000	-0.200000
0.002248	-5.600000	-0.800000
0.002252	-8.400000	-1.200000
0.002256	-11.200000	-1.800000
0.002260	-14.000000	-2.200000
0.002264	-16.800000	-2.800000
0.002268	-19.600000	-3.400000
0.002272	-22.400000	-4.000000
0.002276	-25.200000	-4.600000
0.002280	-28.000000	-5.200000
0.002284	-28.400000	-5.400000
0.002288	-25.600000	-4.800000
0.002292	-22.800000	-4.200000
0.002296	-20.000000	-3.600000
0.002300	-16.800000	-3.200000
0.002304	-14.000000	-2.600000
0.002308	-11.200000	-2.200000
0.002312	-8.400000	-1.600000
0.002316	-5.600000	-1.200000
0.002320	-2.400000	-0.600000
0.002324	0.400000	-0.200000
0.002328	3.200000	0.400000
0.002332	6.000000	0.800000
0.002336	8.800000	1.400000
0.002340	11.600000	1.800000
0.002344	14.400000	2.400000
0.002348	17.200000	3.000000
0.002352	20.000000	3.400000
0.002356	22.800000	4.000000
0.002360	25.600000	4.600000
0.002364	28.400000	5.200000
0.002368	27.600000	5.200000
0.002372	24.800000	4.600000
0.002376	22.000000	4.000000
0.002380	18.800000	3.600000
0.002384	16.400000	3.000000
0.002388	13.200000	2.600000
0.002392	10.400000	2.000000
0.002396	7.600000	1.600000
0.002400	4.800000	1.000000
0.002404	2.000000	0.600000
0.002408	-0.800000	0.200000
0.002412	-3.600000	-0.400000
0.002416	-6.400000	-1.000000
0.002420	-9.600000	-1.400000
0.002424	-12.400000	-2.000000
0.002428	-14.800000	-2.600000
0.002432	-18.000000	-3.000000
0.002436	-20.800000	-3.600000
0.002440	-23.600000	-4.200000
0.002444	-26.400000	-4.800000
0.002448	-29.200000	-5.400000
0.002452	-26.800000	-5.000000
0.002456	-24.000000	-4.600000
0.002460	-21.200000	-4.000000
0.002464	-18.400000	-3.400000
0.002468	-15.600000	-3.000000
0.002472	-12.800000	-2.400000
0.002476	-10.000000	-2.000000
0.002480	-7.200000	-1.400000
0.002484	-4.400000	-1.000000
0.002488	-1.200000	-0.400000
0.002492	1.200000	0.000000
0.002496	4.400000	0.600000
0.002500	7.200000	1.000000
0.002504	10.000000	1.600000
0.002508	12.800000	2.000000
0.002512	15.600000	2.600000
0.002516	18.400000	3.200000
0.002520	21.200000	3.600000
0.002524	24.000000	4.400000
0.002528	26.800000	5.000000
0.002532	29.200000	5.400000
0.002536	26.400000	5.000000
0.002540	23.600000	4.400000
0.002544	20.800000	3.800000
0.002548	18.000000	3.200000
0.002552	15.200000	2.800000
0.002556	12.400000	2.400000
0.002560	9.600000	1.800000
0.002564	6.400000	1.400000
0.002568	4.000000	1.000000
0.002572	0.800000	0.400000
0.002576	-2.000000	0.000000
0.002580	-4.800000	-0.600000
0.002584	-7.600000	-1.200000
0.002588	-10.400000	-1.600000
0.002592	-13.200000	-2.200000
0.002596	-16.000000	-2.600000
0.002600	-18.800000	-3.200000
0.002604	-22.000000	-3.800000
0.002608	-24.400000	-4.400000
0.002612	-27.600000	-5.000000
0.002616	-28.800000	-5.400000
0.002620	-26.000000	-4.800000
0.002624	-23.200000	-4.400000
0.002628	-20.400000	-3.800000
0.002632	-17.600000	-3.200000
0.002636	-14.400000	-2.800000
0.002640	-12.000000	-2.200000
0.002644	-8.800000	-1.800000
0.002648	-6.000000	-1.200000
0.002652	-3.200000	-0.800000
0.002656	0.000000	-0.200000
0.002660	2.400000	0.200000
0.002664	5.600000	0.800000
0.002668	8.400000	1.200000
0.002672	11.200000	1.800000
0.002676	14.000000	2.400000
0.002680	16.800000	2.800000
0.002684	19.600000	3.400000
0.002688	22.400000	4.000000
0.002692	25.200000	4.600000
0.002696	28.000000	5.200000
0.002700	28.400000	5.200000
0.002704	25.200000	4.800000
0.002708	22.400000	4.200000
0.002712	19.600000	3.600000
0.002716	16.800000	3.000000
0.002720	14.000000	2.600000
0.002724	11.200000	2.200000
0.002728	8.400000	1.600000
0.002732	5.600000	1.200000
0.002736	2.400000	0.800000
0.002740	-0.400000	0.200000
0.002744	-3.200000	-0.200000
0.002748	-6.000000	-0.800000
0.002752	-8.800000	-1.400000
0.002756	-11.600000	-1.800000
0.002760	-14.400000	-2.400000
0.002764	-17.200000	-3.000000
0.002768	-20.000000	-3.400000
0.002772	-23.200000	-4.000000
0.002776	-25.600000	-4.600000
0.002780	-28.400000	-5.400000
0.002784	-27.600000	-5.200000
0.002788	-24.800000	-4.600000
0.002792	-22.000000	-4.000000
0.002796	-19.200000	-3.600000
0.002800	-16.400000	-3.000000
0.002804	-13.200000	-2.600000
0.002808	-10.800000	-2.000000
0.002812	-7.600000	-1.600000
0.002816	-4.800000	-1.000000
0.002820	-2.000000	-0.600000
0.002824	0.800000	0.000000
0.002828	3.600000	0.400000
0.002832	6.400000	1.000000
0.002836	9.200000	1.400000
0.002840	12.400000	2.000000
0.002844	15.200000	2.400000
0.002848	17.600000	3.000000
0.002852	20.800000	3.600000
0.002856	23.200000	4.200000
0.002860	26.000000	4.800000
0.002864	28.800000	5.400000
0.002868	26.800000	5.000000
0.002872	24.000000	4.400000
0.002876	21.200000	4.000000
0.002880	18.400000	3.400000
0.002884	15.600000	2.800000
0.002888	12.800000	2.400000
0.002892	10.000000	2.000000
0.002896	7.200000	1.400000
0.002900	4.400000	1.000000
0.002904	1.600000	0.400000
0.002908	-1.200000	0.000000
0.002912	-4.400000	-0.600000
0.002916	-7.200000	-1.000000
0.002920	-10.000000	-1.600000
0.002924	-12.800000	-2.000000
0.002928	-15.600000	-2.600000
0.002932	-18.400000	-3.200000
0.002936	-21.200000	-3.800000
0.002940	-24.000000	-4.400000
0.002944	-26.800000	-5.000000
0.002948	-29.200000	-5.600000
0.002952	-26.400000	-5.000000
0.002956	-23.600000	-4.400000
0.002960	-20.800000	-3.800000
0.002964	-18.000000	-3.400000
0.002968	-15.200000	-2.800000
0.002972	-12.400000	-2.400000
0.002976	-9.200000	-1.800000
0.002980	-6.400000	-1.400000
0.002984	-3.600000	-0.800000
0.002988	-0.800000	-0.200000
0.002992	2.000000	0.200000
0.002996	4.800000	0.600000
0.003000	7.600000	1.200000
0.003004	10.400000	1.600000
0.003008	13.200000	2.200000
0.003012	16.400000	2.600000
0.003016	18.800000	3.200000
0.003020	22.000000	3.800000
0.003024	24.400000	4.400000
0.003028	27.200000	5.000000
0.003032	28.800000	5.400000
0.003036	26.000000	4.800000
0.003040	23.200000	4.200000
0.003044	20.000000	3.800000
0.003048	17.200000	3.200000
0.003052	14.400000	2.800000
0.003056	11.600000	2.200000
0.003060	8.800000	1.800000
0.003064	6.000000	1.200000
0.003068	3.200000	0.800000
0.003072	0.400000	0.400000
0.003076	-2.400000	-0.200000
0.003080	-5.600000	-0.800000
0.003084	-8.400000	-1.200000
0.003088	-11.200000	-1.800000
0.003092	-14.000000	-2.200000
0.003096	-16.800000	-2.800000
0.003100	-19.600000	-3.400000
0.003104	-22.400000	-4.000000
0.003108	-25.200000	-4.600000
0.003112	-28.000000	-5.200000
0.003116	-28.400000	-5.400000
0.003120	-25.200000	-4.800000
0.003124	-22.800000	-4.200000
0.003128	-19.600000	-3.600000
0.003132	-16.800000	-3.200000
0.003136	-14.000000	-2.600000
0.003140	-11.200000	-2.200000
0.003144	-8.400000	-1.600000
0.003148	-5.600000	-1.200000
0.003152	-2.400000	-0.600000
0.003156	0.400000	-0.200000
0.003160	3.200000	0.400000
0.003164	6.000000	0.800000
0.003168	8.800000	1.400000
0.003172	11.600000	1.800000
0.003176	14.400000	2.400000
0.003180	17.200000	2.800000
0.003184	20.000000	3.400000
0.003188	22.800000	4.000000
0.003192	25.600000	4.600000
0.003196	28.400000	5.200000
0.003200	27.600000	5.200000
0.003204	24.800000	4.600000
0.003208	22.000000	4.000000
0.003212	19.200000	3.600000
0.003216	16.400000	3.000000
0.003220	13.200000	2.600000
0.003224	10.400000	2.000000
0.003228	7.600000	1.600000
0.003232	4.800000	1.000000
0.003236	2.000000	0.600000
0.003240	-0.800000	0.200000
0.003244	-3.600000	-0.400000
0.003248	-6.400000	-1.000000
0.003252	-9.600000	-1.400000
0.003256	-12.400000	-2.000000
0.003260	-15.200000	-2.400000
0.003264	-18.000000	-3.000000
0.003268	-20.800000	-3.600000
0.003272	-23.600000	-4.200000
0.003276	-26.400000	-4.800000
0.003280	-29.200000	-5.400000
0.003284	-26.800000	-5.000000
0.003288	-24.000000	-4.600000
0.003292	-21.200000	-4.000000
0.003296	-18.400000	-3.400000
0.003300	-15.600000	-3.000000
0.003304	-12.800000	-2.400000
0.003308	-10.000000	-2.000000
0.003312	-7.200000	-1.400000
0.003316	-4.400000	-1.000000
0.003320	-1.200000	-0.400000
0.003324	1.600000	0.000000
0.003328	4.400000	0.600000
0.003332	7.200000	1.000000
0.003336	10.000000	1.600000
0.003340	12.800000	2.200000
0.003344	15.600000	2.600000
0.003348	18.400000	3.200000
0.003352	21.200000	3.600000
0.003356	24.000000	4.400000
0.003360	26.800000	5.000000
0.003364	28.800000	5.400000
0.003368	26.000000	5.000000
0.003372	23.600000	4.400000
0.003376	20.800000	3.800000
0.003380	18.000000	3.200000
0.003384	15.200000	2.800000
0.003388	12.400000	2.400000
0.003392	9.200000	1.800000
0.003396	6.400000	1.400000
0.003400	3.600000	1.000000
0.003404	0.800000	0.400000
0.003408	-2.000000	0.000000
0.003412	-4.800000	-0.600000
0.003416	-7.600000	-1.200000
0.003420	-10.400000	-1.600000
0.003424	-13.200000	-2.200000
0.003428	-16.400000	-2.600000
0.003432	-18.800000	-3.200000
0.003436	-22.000000	-3.800000
0.003440	-24.800000	-4.400000
0.003444	-27.600000	-5.000000
0.003448	-28.800000	-5.400000
0.003452	-26.000000	-4.800000
0.003456	-23.200000	-4.200000
0.003460	-20.400000	-3.800000
0.003464	-17.600000	-3.200000
0.003468	-14.400000	-2.800000
0.003472	-11.600000	-2.200000
0.003476	-8.800000	-1.800000
0.003480	-6.000000	-1.200000
0.003484	-3.200000	-0.800000
0.003488	0.000000	-0.200000
0.003492	2.400000	0.200000
0.003496	5.600000	0.800000
0.003500	8.400000	1.200000
0.003504	11.200000	1.800000
0.003508	14.000000	2.200000
0.003512	16.800000	2.800000
0.003516	19.600000	3.400000
0.003520	22.400000	4.000000
0.003524	25.200000	4.600000
0.003528	28.000000	5.200000
0.003532	28.000000	5.200000
0.003536	25.200000	4.800000
0.003540	22.400000	4.200000
0.003544	19.600000	3.600000
0.003548	16.800000	3.000000
0.003552	14.000000	2.600000
0.003556	11.200000	2.200000
0.003560	8.400000	1.600000
0.003564	5.600000	1.200000
0.003568	2.400000	0.600000
0.003572	-0.400000	0.200000
0.003576	-3.200000	-0.200000
0.003580	-6.000000	-0.800000
0.003584	-8.800000	-1.400000
0.003588	-11.600000	-1.800000
0.003592	-14.400000	-2.400000
0.003596	-17.200000	-3.000000
0.003600	-20.000000	-3.600000
0.003604	-23.200000	-4.000000
0.003608	-25.600000	-4.800000
0.003612	-28.400000	-5.400000
0.003616	-27.600000	-5.200000
0.003620	-24.800000	-4.600000
0.003624	-22.000000	-4.000000
0.003628	-19.200000	-3.600000
0.003632	-16.400000	-3.000000
0.003636	-13.200000	-2.600000
0.003640	-10.400000	-2.000000
0.003644	-7.600000	-1.600000
0.003648	-4.800000	-1.000000
0.003652	-2.000000	-0.600000
0.003656	0.800000	0.000000
0.003660	3.600000	0.400000
0.003664	6.400000	1.000000
0.003668	9.600000	1.400000
0.003672	12.400000	2.000000
0.003676	15.200000	2.600000
0.003680	18.000000	3.000000
0.003684	20.800000	3.600000
0.003688	23.600000	4.200000
0.003692	26.000000	4.800000
0.003696	28.800000	5.400000
0.003700	26.800000	5.000000
0.003704	24.000000	4.400000
0.003708	21.200000	4.000000
0.003712	18.400000	3.400000
0.003716	15.600000	2.800000
0.003720	12.800000	2.400000
0.003724	10.000000	2.000000
0.003728	7.200000	1.400000
0.003732	4.400000	1.000000
0.003736	1.600000	0.600000
0.003740	-1.200000	0.000000
0.003744	-4.400000	-0.600000
0.003748	-7.200000	-1.000000
0.003752	-10.000000	-1.600000
0.003756	-12.800000	-2.000000
0.003760	-15.600000	-2.600000
0.003764	-18.400000	-3.200000
0.003768	-21.200000	-3.800000
0.003772	-24.000000	-4.400000
0.003776	-26.800000	-5.000000
0.003780	-29.200000	-5.600000
0.003784	-26.400000	-5.000000
0.003788	-23.600000	-4.400000
0.003792	-20.800000	-3.800000
0.003796	-18.000000	-3.400000
0.003800	-14.800000	-2.800000
0.003804	-12.400000	-2.400000
0.003808	-9.200000	-1.800000
0.003812	-6.400000	-1.400000
0.003816	-3.600000	-0.800000
0.003820	-0.800000	-0.200000
0.003824	2.000000	0.200000
0.003828	4.800000	0.800000
0.003832	7.600000	1.200000
0.003836	10.400000	1.600000
0.003840	13.200000	2.200000
0.003844	16.400000	2.800000
0.003848	18.800000	3.200000
0.003852	21.600000	3.800000
0.003856	24.800000	4.400000
0.003860	27.200000	5.000000
0.003864	28.800000	5.400000
0.003868	26.000000	4.800000
0.003872	23.200000	4.200000
0.003876	20.000000	3.800000
0.003880	17.200000	3.200000
0.003884	14.400000	2.800000
0.003888	11.600000	2.200000
0.003892	8.800000	1.800000
0.003896	6.000000	1.200000
0.003900	3.200000	0.800000
0.003904	0.400000	0.200000
0.003908	-2.400000	-0.200000
0.003912	-5.600000	-0.800000
0.003916	-8.400000	-1.200000
0.003920	-11.200000	-1.800000
0.003924	-14.000000	-2.400000
0.003928	-16.800000	-2.800000
0.003932	-19.600000	-3.400000
0.003936	-22.400000	-4.000000
0.003940	-25.200000	-4.600000
0.003944	-28.000000	-5.200000
0.003948	-28.400000	-5.400000
0.003952	-25.200000	-4.800000
0.003956	-22.800000	-4.200000
0.003960	-19.600000	-3.600000
0.003964	-16.800000	-3.200000
0.003968	-14.000000	-2.600000
0.003972	-11.200000	-2.200000
0.003976	-8.400000	-1.600000
0.003980	-5.600000	-1.200000
0.003984	-2.400000	-0.600000
0.003988	0.400000	-0.200000
0.003992	3.200000	0.400000
0.003996	6.000000	0.800000
0.004000	8.800000	1.400000
0.004004	11.600000	2.000000
0.004008	14.400000	2.400000
0.004012	17.200000	2.800000
0.004016	20.000000	3.400000
0.004020	22.800000	4.000000
0.004024	25.600000	4.600000
0.004028	28.400000	5.200000
0.004032	27.200000	5.200000
0.004036	24.800000	4.600000
0.004040	21.600000	4.000000
0.004044	18.800000	3.600000
0.004048	16.400000	3.000000
0.004052	13.200000	2.600000
0.004056	10.400000	2.000000
0.004060	7.600000	1.400000
0.004064	4.800000	1.000000
0.004068	2.000000	0.600000
0.004072	-0.800000	0.200000
0.004076	-4.000000	-0.400000
0.004080	-6.800000	-1.000000
0.004084	-9.200000	-1.400000
0.004088	-12.400000	-2.000000
0.004092	-15.200000	-2.400000
0.004096	-18.000000	-3.000000
0.004100	-20.800000	-3.600000
0.004104	-23.600000	-4.200000
0.004108	-26.400000	-4.800000
0.004112	-29.200000	-5.400000
0.004116	-26.800000	-5.000000
0.004120	-24.000000	-4.400000
0.004124	-21.200000	-4.000000
0.004128	-18.400000	-3.400000
0.004132	-15.600000	-2.800000
0.004136	-12.800000	-2.400000
0.004140	-10.000000	-2.000000
0.004144	-6.800000	-1.400000
0.004148	-4.400000	-1.000000
0.004152	-1.200000	-0.400000
0.004156	1.600000	0.000000
0.004160	4.400000	0.600000
0.004164	7.200000	1.000000
0.004168	10.000000	1.600000
0.004172	12.800000	2.200000
0.004176	15.600000	2.600000
0.004180	18.400000	3.200000
0.004184	21.200000	3.600000
0.004188	24.000000	4.400000
0.004192	26.800000	5.000000
0.004196	29.200000	5.400000
0.004200	26.400000	5.000000
0.004204	23.600000	4.400000
0.004208	20.800000	3.800000
0.004212	18.000000	3.200000
0.004216	15.200000	2.800000
0.004220	12.400000	2.400000
0.004224	9.200000	1.800000
0.004228	6.400000	1.400000
0.004232	3.600000	0.800000
0.004236	0.800000	0.400000
0.004240	-2.000000	0.000000
0.004244	-4.800000	-0.600000
0.004248	-7.600000	-1.200000
0.004252	-10.800000	-1.600000
0.004256	-13.600000	-2.200000
0.004260	-16.400000	-2.600000
0.004264	-19.200000	-3.200000
0.004268	-22.000000	-3.800000
0.004272	-24.800000	-4.400000
0.004276	-27.600000	-5.000000
0.004280	-28.800000	-5.400000
0.004284	-26.000000	-4.800000
0.004288	-23.200000	-4.200000
0.004292	-20.400000	-3.800000
0.004296	-17.600000	-3.200000
0.004300	-14.400000	-2.800000
0.004304	-11.600000	-2.200000
0.004308	-8.800000	-1.800000
0.004312	-6.000000	-1.200000
0.004316	-3.200000	-0.800000
0.004320	0.000000	-0.200000
0.004324	2.800000	0.200000
0.004328	5.600000	0.800000
0.004332	8.400000	1.200000
0.004336	11.200000	1.800000
0.004340	14.000000	2.400000
0.004344	16.800000	2.800000
0.004348	19.600000	3.400000
0.004352	22.400000	4.000000
0.004356	25.200000	4.600000
0.004360	28.000000	5.200000
0.004364	28.000000	5.200000
0.004368	25.200000	4.800000
0.004372	22.400000	4.200000
0.004376	19.600000	3.600000
0.004380	16.800000	3.000000
0.004384	14.000000	2.600000
0.004388	11.200000	2.200000
0.004392	8.400000	1.600000
0.004396	5.200000	1.200000
0.004400	2.400000	0.600000
0.004404	-0.400000	0.200000
0.004408	-3.200000	-0.200000
0.004412	-6.000000	-0.800000
0.004416	-8.800000	-1.400000
0.004420	-11.600000	-1.800000
0.004424	-14.400000	-2.400000
0.004428	-17.600000	-3.000000
0.004432	-20.000000	-3.600000
0.004436	-23.200000	-4.000000
0.004440	-26.000000	-4.800000
0.004444	-28.400000	-5.400000
0.004448	-27.200000	-5.200000
0.004452	-24.400000	-4.600000
0.004456	-22.000000	-4.000000
0.004460	-19.200000	-3.600000
0.004464	-16.000000	-3.000000
0.004468	-13.200000	-2.600000
0.004472	-10.400000	-2.000000
0.004476	-7.600000	-1.600000
0.004480	-4.800000	-1.000000
0.004484	-2.000000	-0.400000
0.004488	0.800000	0.000000
0.004492	3.600000	0.400000
0.004496	6.800000	1.000000
0.004500	9.600000	1.400000
0.004504	12.400000	2.000000
0.004508	15.200000	2.400000
0.004512	18.000000	3.000000
0.004516	20.800000	3.600000
0.004520	23.600000	4.200000
0.004524	26.400000	4.800000
0.004528	28.800000	5.400000
0.004532	26.800000	5.000000
0.004536	24.000000	4.400000
0.004540	21.200000	4.000000
0.004544	18.400000	3.400000
0.004548	15.600000	3.000000
0.004552	12.800000	2.400000
0.004556	10.000000	2.000000
0.004560	7.200000	1.400000
0.004564	4.400000	1.000000
0.004568	1.200000	0.400000
0.004572	-1.600000	0.000000
0.004576	-4.400000	-0.600000
0.004580	-7.200000	-1.000000
0.004584	-10.000000	-1.600000
0.004588	-12.800000	-2.000000
0.004592	-15.600000	-2.600000
0.004596	-18.400000	-3.200000
0.004600	-21.200000	-3.800000
0.004604	-24.000000	-4.400000
0.004608	-26.800000	-5.000000
0.004612	-29.200000	-5.400000
0.004616	-26.400000	-5.000000
0.004620	-23.600000	-4.400000
0.004624	-20.800000	-3.800000
0.004628	-18.000000	-3.400000
0.004632	-14.800000	-2.800000
0.004636	-12.000000	-2.400000
0.004640	-9.200000	-1.800000
0.004644	-6.400000	-1.400000
0.004648	-3.600000	-0.800000
0.004652	-0.800000	-0.200000
0.004656	2.000000	0.200000
0.004660	4.800000	0.800000
0.004664	7.600000	1.200000
0.004668	10.400000	1.600000
0.004672	13.200000	2.200000
0.004676	16.400000	2.800000
0.004680	18.800000	3.200000
0.004684	22.000000	3.800000
0.004688	24.800000	4.400000
0.004692	27.600000	5.000000
0.004696	28.800000	5.400000
0.004700	26.000000	4.800000
0.004704	22.800000	4.200000
0.004708	20.000000	3.800000
0.004712	17.200000	3.200000
0.004716	14.400000	2.800000
0.004720	11.600000	2.200000
0.004724	8.800000	1.600000
0.004728	6.000000	1.200000
0.004732	3.200000	0.800000
0.004736	0.400000	0.200000
0.004740	-2.400000	-0.200000
0.004744	-5.600000	-0.800000
0.004748	-8.400000	-1.200000
0.004752	-11.200000	-1.800000
0.004756	-14.000000	-2.400000
0.004760	-16.800000	-2.800000
0.004764	-19.600000	-3.400000
0.004768	-22.400000	-4.000000
0.004772	-25.200000	-4.600000
0.004776	-28.000000	-5.200000
0.004780	-28.000000	-5.400000
0.004784	-25.200000	-4.800000
0.004788	-22.400000	-4.200000
0.004792	-19.600000	-3.600000
0.004796	-16.800000	-3.000000
0.004800	-14.000000	-2.600000
0.004804	-11.200000	-2.200000
0.004808	-8.000000	-1.600000
0.004812	-5.600000	-1.200000
0.004816	-2.400000	-0.600000
0.004820	0.400000	0.000000
0.004824	3.200000	0.400000
0.004828	6.000000	0.800000
0.004832	8.800000	1.400000
0.004836	11.600000	2.000000
0.004840	14.400000	2.400000
0.004844	17.200000	3.000000
0.004848	20.000000	3.400000
0.004852	22.800000	4.000000
0.004856	25.600000	4.800000
0.004860	28.400000	5.200000
0.004864	27.200000	5.200000
0.004868	24.400000	4.600000
0.004872	21.600000	4.000000
0.004876	18.800000	3.400000
0.004880	16.000000	3.000000
0.004884	13.200000	2.600000
0.004888	10.400000	2.000000
0.004892	7.600000	1.600000
0.004896	4.800000	1.000000
0.004900	2.000000	0.600000
0.004904	-0.800000	0.200000
0.004908	-4.000000	-0.400000
0.004912	-6.800000	-1.000000
0.004916	-9.600000	-1.400000
0.004920	-12.400000	-2.000000
0.004924	-15.200000	-2.600000
0.004928	-18.000000	-3.000000
0.004932	-20.800000	-3.600000
0.004936	-23.600000	-4.200000
0.004940	-26.400000	-4.800000
0.004944	-29.200000	-5.400000
0.004948	-26.800000	-5.000000
0.004952	-24.000000	-4.600000
0.004956	-21.200000	-4.000000
0.004960	-18.400000	-3.400000
0.004964	-15.600000	-2.800000
0.004968	-12.800000	-2.400000
0.004972	-10.000000	-2.000000
0.004976	-6.800000	-1.400000
0.004980	-4.400000	-1.000000
0.004984	-1.200000	-0.400000
0.004988	1.600000	0.000000
0.004992	4.400000	0.600000
0.004996	7.200000	1.000000

