LabVIEW Measurement	
Writer_Version	2
Reader_Version	2
Separator	Tab
Decimal_Separator	.
Multi_Headings	Yes
X_Columns	One
Time_Pref	Relative
Operator	e014
Description	Hysteresis Loop Data
Date	2015/07/23
Time	13:50:53.1036009788513183594
***End_of_Header***	
	
Channels	2		
Samples	2500	2500	
Date	2015/07/23	2015/07/23	
Time	13:50:53.1036009788513183594	13:50:53.1036009788513183594	
X_Dimension	Time	Time	
X0	-2.5000000000000001E-3	-2.5000000000000001E-3	
Delta_X	2.000000E-6	2.000000E-6	
***End_of_Header***			
X_Value	Untitled	Untitled 1	Comment
-0.002500	0.400000	-4.400000
-0.002498	1.200000	-4.000000
-0.002496	2.000000	-3.400000
-0.002494	3.200000	-2.800000
-0.002492	4.000000	-2.200000
-0.002490	5.200000	-1.600000
-0.002488	6.000000	-1.000000
-0.002486	6.800000	-0.400000
-0.002484	8.000000	0.200000
-0.002482	8.800000	0.800000
-0.002480	9.600000	1.400000
-0.002478	10.800000	2.000000
-0.002476	11.600000	2.600000
-0.002474	12.400000	3.200000
-0.002472	13.600000	3.800000
-0.002470	14.400000	4.600000
-0.002468	15.600000	5.000000
-0.002466	16.400000	5.600000
-0.002464	17.200000	6.200000
-0.002462	18.000000	6.800000
-0.002460	19.200000	7.400000
-0.002458	20.000000	8.000000
-0.002456	20.800000	8.600000
-0.002454	22.000000	9.000000
-0.002452	22.800000	9.600000
-0.002450	24.000000	10.200000
-0.002448	24.800000	10.600000
-0.002446	25.600000	11.200000
-0.002444	26.400000	11.600000
-0.002442	27.600000	12.200000
-0.002440	28.400000	12.600000
-0.002438	29.200000	13.000000
-0.002436	28.400000	13.000000
-0.002434	27.200000	13.000000
-0.002432	26.800000	13.000000
-0.002430	25.200000	12.800000
-0.002428	25.200000	13.000000
-0.002426	23.200000	12.800000
-0.002424	23.200000	12.800000
-0.002422	21.600000	12.400000
-0.002420	21.200000	12.400000
-0.002418	19.600000	12.200000
-0.002416	19.200000	12.000000
-0.002414	18.000000	11.800000
-0.002412	17.200000	11.600000
-0.002410	16.000000	11.400000
-0.002408	15.200000	11.200000
-0.002406	14.000000	10.800000
-0.002404	13.200000	10.600000
-0.002402	12.400000	10.200000
-0.002400	11.600000	9.800000
-0.002398	10.400000	9.600000
-0.002396	9.600000	9.200000
-0.002394	8.400000	8.800000
-0.002392	7.600000	8.400000
-0.002390	6.800000	8.000000
-0.002388	5.600000	7.600000
-0.002386	4.800000	7.200000
-0.002384	4.000000	6.600000
-0.002382	2.800000	6.200000
-0.002380	2.000000	5.600000
-0.002378	1.200000	5.200000
-0.002376	0.000000	4.600000
-0.002374	-0.800000	4.200000
-0.002372	-1.600000	3.600000
-0.002370	-2.400000	3.000000
-0.002368	-3.600000	2.600000
-0.002366	-4.400000	2.000000
-0.002364	-5.600000	1.400000
-0.002362	-6.400000	0.800000
-0.002360	-7.200000	0.200000
-0.002358	-8.000000	-0.400000
-0.002356	-9.200000	-1.000000
-0.002354	-10.000000	-1.600000
-0.002352	-10.800000	-2.200000
-0.002350	-11.600000	-2.800000
-0.002348	-12.800000	-3.600000
-0.002346	-14.000000	-4.200000
-0.002344	-14.800000	-4.800000
-0.002342	-16.000000	-5.400000
-0.002340	-16.800000	-6.000000
-0.002338	-17.600000	-6.600000
-0.002336	-18.800000	-7.200000
-0.002334	-19.600000	-7.800000
-0.002332	-20.400000	-8.400000
-0.002330	-21.600000	-8.800000
-0.002328	-22.800000	-9.400000
-0.002326	-23.600000	-10.000000
-0.002324	-24.400000	-10.600000
-0.002322	-25.200000	-11.000000
-0.002320	-26.400000	-11.600000
-0.002318	-27.200000	-12.000000
-0.002316	-28.400000	-12.600000
-0.002314	-29.200000	-13.000000
-0.002312	-29.200000	-13.200000
-0.002310	-27.600000	-13.200000
-0.002308	-26.800000	-13.200000
-0.002306	-26.000000	-13.200000
-0.002304	-24.800000	-13.000000
-0.002302	-24.400000	-13.000000
-0.002300	-22.800000	-13.000000
-0.002298	-22.400000	-12.800000
-0.002296	-21.200000	-12.600000
-0.002294	-20.400000	-12.400000
-0.002292	-19.200000	-12.200000
-0.002290	-18.400000	-12.000000
-0.002288	-17.200000	-11.800000
-0.002286	-16.800000	-11.600000
-0.002284	-15.200000	-11.200000
-0.002282	-14.800000	-11.200000
-0.002280	-13.600000	-10.800000
-0.002278	-12.800000	-10.400000
-0.002276	-11.600000	-10.200000
-0.002274	-10.800000	-9.800000
-0.002272	-10.000000	-9.400000
-0.002270	-8.800000	-9.000000
-0.002268	-8.000000	-8.600000
-0.002266	-7.200000	-8.200000
-0.002264	-6.000000	-7.600000
-0.002262	-5.200000	-7.200000
-0.002260	-4.400000	-6.800000
-0.002258	-3.200000	-6.400000
-0.002256	-2.000000	-5.800000
-0.002254	-1.200000	-5.400000
-0.002252	-0.400000	-4.800000
-0.002250	0.800000	-4.200000
-0.002248	1.600000	-3.800000
-0.002246	2.400000	-3.200000
-0.002244	3.600000	-2.600000
-0.002242	4.400000	-2.000000
-0.002240	5.200000	-1.400000
-0.002238	6.400000	-0.800000
-0.002236	7.200000	-0.200000
-0.002234	8.000000	0.400000
-0.002232	9.200000	1.000000
-0.002230	10.000000	1.600000
-0.002228	10.800000	2.200000
-0.002226	12.000000	2.800000
-0.002224	12.800000	3.400000
-0.002222	13.600000	4.000000
-0.002220	14.800000	4.600000
-0.002218	15.600000	5.200000
-0.002216	16.800000	5.800000
-0.002214	17.600000	6.400000
-0.002212	18.400000	7.000000
-0.002210	19.600000	7.600000
-0.002208	20.400000	8.200000
-0.002206	21.200000	8.800000
-0.002204	22.400000	9.200000
-0.002202	23.200000	9.800000
-0.002200	24.000000	10.200000
-0.002198	25.200000	10.800000
-0.002196	26.000000	11.200000
-0.002194	26.800000	11.800000
-0.002192	28.000000	12.200000
-0.002190	28.800000	12.600000
-0.002188	29.200000	13.000000
-0.002186	28.000000	13.000000
-0.002184	27.200000	13.000000
-0.002182	26.000000	13.000000
-0.002180	25.200000	12.800000
-0.002178	24.400000	12.800000
-0.002176	23.200000	12.800000
-0.002174	22.800000	12.600000
-0.002172	21.200000	12.400000
-0.002170	20.800000	12.400000
-0.002168	19.200000	12.000000
-0.002166	18.800000	12.000000
-0.002164	17.600000	11.800000
-0.002162	17.200000	11.600000
-0.002160	15.600000	11.200000
-0.002158	15.200000	11.000000
-0.002156	13.600000	10.800000
-0.002154	13.200000	10.400000
-0.002152	12.000000	10.200000
-0.002150	11.200000	9.800000
-0.002148	10.000000	9.400000
-0.002146	9.200000	9.200000
-0.002144	8.400000	8.800000
-0.002142	7.200000	8.200000
-0.002140	6.400000	7.800000
-0.002138	5.200000	7.400000
-0.002136	4.400000	7.000000
-0.002134	3.600000	6.600000
-0.002132	2.400000	6.000000
-0.002130	1.600000	5.400000
-0.002128	0.800000	5.000000
-0.002126	0.000000	4.400000
-0.002124	-1.200000	4.000000
-0.002122	-2.000000	3.400000
-0.002120	-3.200000	2.800000
-0.002118	-4.000000	2.400000
-0.002116	-4.800000	1.800000
-0.002114	-6.000000	1.200000
-0.002112	-6.800000	0.600000
-0.002110	-7.600000	0.000000
-0.002108	-8.400000	-0.600000
-0.002106	-9.600000	-1.200000
-0.002104	-10.400000	-1.800000
-0.002102	-11.200000	-2.400000
-0.002100	-12.000000	-3.000000
-0.002098	-13.200000	-3.800000
-0.002096	-14.000000	-4.400000
-0.002094	-14.800000	-4.800000
-0.002092	-16.000000	-5.600000
-0.002090	-17.200000	-6.200000
-0.002088	-18.000000	-6.800000
-0.002086	-18.800000	-7.200000
-0.002084	-20.000000	-8.000000
-0.002082	-20.800000	-8.400000
-0.002080	-22.000000	-9.000000
-0.002078	-22.800000	-9.600000
-0.002076	-23.600000	-10.200000
-0.002074	-24.800000	-10.800000
-0.002072	-25.600000	-11.200000
-0.002070	-26.800000	-11.800000
-0.002068	-27.600000	-12.200000
-0.002066	-28.400000	-12.800000
-0.002064	-29.200000	-13.200000
-0.002062	-28.800000	-13.200000
-0.002060	-27.200000	-13.200000
-0.002058	-26.800000	-13.200000
-0.002056	-25.600000	-13.000000
-0.002054	-24.800000	-13.000000
-0.002052	-23.600000	-13.000000
-0.002050	-22.800000	-12.800000
-0.002048	-22.000000	-12.800000
-0.002046	-20.800000	-12.600000
-0.002044	-20.400000	-12.400000
-0.002042	-18.800000	-12.200000
-0.002040	-18.400000	-12.000000
-0.002038	-17.200000	-11.600000
-0.002036	-16.400000	-11.600000
-0.002034	-15.200000	-11.200000
-0.002032	-14.400000	-11.000000
-0.002030	-13.200000	-10.600000
-0.002028	-12.400000	-10.400000
-0.002026	-11.600000	-10.000000
-0.002024	-10.800000	-9.600000
-0.002022	-9.600000	-9.200000
-0.002020	-8.800000	-8.800000
-0.002018	-7.600000	-8.600000
-0.002016	-6.800000	-8.000000
-0.002014	-6.000000	-7.600000
-0.002012	-4.800000	-7.000000
-0.002010	-4.000000	-6.600000
-0.002008	-2.800000	-6.200000
-0.002006	-2.000000	-5.600000
-0.002004	-0.800000	-5.200000
-0.002002	0.000000	-4.600000
-0.002000	0.800000	-4.000000
-0.001998	1.600000	-3.600000
-0.001996	2.800000	-3.000000
-0.001994	4.000000	-2.400000
-0.001992	4.800000	-1.800000
-0.001990	5.600000	-1.200000
-0.001988	6.400000	-0.600000
-0.001986	7.600000	0.000000
-0.001984	8.400000	0.600000
-0.001982	9.600000	1.200000
-0.001980	10.400000	1.800000
-0.001978	11.200000	2.400000
-0.001976	12.400000	3.000000
-0.001974	13.200000	3.600000
-0.001972	14.000000	4.200000
-0.001970	15.200000	4.800000
-0.001968	16.000000	5.400000
-0.001966	16.800000	6.000000
-0.001964	18.000000	6.600000
-0.001962	18.800000	7.200000
-0.001960	19.600000	7.800000
-0.001958	20.400000	8.200000
-0.001956	21.600000	9.000000
-0.001954	22.400000	9.400000
-0.001952	23.600000	10.000000
-0.001950	24.400000	10.400000
-0.001948	25.200000	11.000000
-0.001946	26.000000	11.400000
-0.001944	27.200000	12.000000
-0.001942	28.000000	12.400000
-0.001940	28.800000	12.800000
-0.001938	29.200000	13.000000
-0.001936	27.200000	13.000000
-0.001934	27.200000	13.000000
-0.001932	25.600000	12.800000
-0.001930	25.200000	13.000000
-0.001928	24.000000	12.800000
-0.001926	23.200000	12.800000
-0.001924	22.400000	12.600000
-0.001922	21.200000	12.400000
-0.001920	20.400000	12.200000
-0.001918	19.200000	12.000000
-0.001916	18.400000	12.000000
-0.001914	17.200000	11.600000
-0.001912	16.800000	11.400000
-0.001910	15.600000	11.200000
-0.001908	14.800000	11.000000
-0.001906	13.600000	10.600000
-0.001904	12.800000	10.400000
-0.001902	11.600000	10.000000
-0.001900	10.800000	9.600000
-0.001898	10.000000	9.400000
-0.001896	8.800000	9.000000
-0.001894	8.000000	8.600000
-0.001892	7.200000	8.200000
-0.001890	6.000000	7.600000
-0.001888	5.200000	7.200000
-0.001886	4.400000	6.800000
-0.001884	3.200000	6.400000
-0.001882	2.400000	5.800000
-0.001880	1.200000	5.400000
-0.001878	0.400000	4.800000
-0.001876	-0.400000	4.400000
-0.001874	-1.200000	3.800000
-0.001872	-2.400000	3.200000
-0.001870	-3.200000	2.800000
-0.001868	-4.400000	2.200000
-0.001866	-5.200000	1.600000
-0.001864	-6.000000	1.000000
-0.001862	-6.800000	0.400000
-0.001860	-7.600000	-0.200000
-0.001858	-8.800000	-0.800000
-0.001856	-9.600000	-1.400000
-0.001854	-10.800000	-2.000000
-0.001852	-11.600000	-2.600000
-0.001850	-12.400000	-3.200000
-0.001848	-13.600000	-3.800000
-0.001846	-14.400000	-4.400000
-0.001844	-15.200000	-5.200000
-0.001842	-16.400000	-5.800000
-0.001840	-17.200000	-6.400000
-0.001838	-18.400000	-7.000000
-0.001836	-19.200000	-7.400000
-0.001834	-20.000000	-8.000000
-0.001832	-21.200000	-8.600000
-0.001830	-22.000000	-9.200000
-0.001828	-23.200000	-9.800000
-0.001826	-24.000000	-10.400000
-0.001824	-25.200000	-11.000000
-0.001822	-26.000000	-11.400000
-0.001820	-26.800000	-11.800000
-0.001818	-28.000000	-12.400000
-0.001816	-28.800000	-12.800000
-0.001814	-29.200000	-13.200000
-0.001812	-28.400000	-13.200000
-0.001810	-27.200000	-13.200000
-0.001808	-26.400000	-13.200000
-0.001806	-25.200000	-13.000000
-0.001804	-24.800000	-13.000000
-0.001802	-23.200000	-13.000000
-0.001800	-22.800000	-12.800000
-0.001798	-21.600000	-12.600000
-0.001796	-20.800000	-12.600000
-0.001794	-19.600000	-12.400000
-0.001792	-18.800000	-12.200000
-0.001790	-18.000000	-12.000000
-0.001788	-16.800000	-11.600000
-0.001786	-16.000000	-11.400000
-0.001784	-14.800000	-11.200000
-0.001782	-14.000000	-11.000000
-0.001780	-12.800000	-10.600000
-0.001778	-12.000000	-10.200000
-0.001776	-11.200000	-9.800000
-0.001774	-10.400000	-9.400000
-0.001772	-9.200000	-9.200000
-0.001770	-8.400000	-8.800000
-0.001768	-7.200000	-8.400000
-0.001766	-6.400000	-8.000000
-0.001764	-5.600000	-7.400000
-0.001762	-4.400000	-7.000000
-0.001760	-3.600000	-6.600000
-0.001758	-2.400000	-6.000000
-0.001756	-1.600000	-5.600000
-0.001754	-0.400000	-5.000000
-0.001752	0.400000	-4.400000
-0.001750	1.200000	-4.000000
-0.001748	2.000000	-3.400000
-0.001746	3.200000	-2.800000
-0.001744	4.000000	-2.200000
-0.001742	5.200000	-1.600000
-0.001740	6.000000	-1.000000
-0.001738	6.800000	-0.400000
-0.001736	7.600000	0.200000
-0.001734	8.800000	0.800000
-0.001732	9.600000	1.400000
-0.001730	10.800000	2.000000
-0.001728	11.600000	2.600000
-0.001726	12.400000	3.200000
-0.001724	13.600000	3.800000
-0.001722	14.400000	4.400000
-0.001720	15.200000	5.000000
-0.001718	16.400000	5.600000
-0.001716	17.200000	6.200000
-0.001714	18.000000	6.800000
-0.001712	19.200000	7.400000
-0.001710	20.000000	8.000000
-0.001708	20.800000	8.400000
-0.001706	22.000000	9.000000
-0.001704	22.800000	9.600000
-0.001702	24.000000	10.000000
-0.001700	24.800000	10.600000
-0.001698	25.600000	11.200000
-0.001696	26.400000	11.600000
-0.001694	27.600000	12.000000
-0.001692	28.400000	12.600000
-0.001690	29.200000	13.000000
-0.001688	28.800000	13.000000
-0.001686	27.200000	13.000000
-0.001684	26.800000	13.000000
-0.001682	25.200000	12.800000
-0.001680	25.200000	13.000000
-0.001678	23.600000	12.800000
-0.001676	23.200000	12.800000
-0.001674	21.600000	12.400000
-0.001672	21.200000	12.400000
-0.001670	20.000000	12.200000
-0.001668	19.200000	12.000000
-0.001666	18.000000	11.800000
-0.001664	17.200000	11.600000
-0.001662	16.400000	11.400000
-0.001660	15.600000	11.200000
-0.001658	14.400000	10.800000
-0.001656	13.600000	10.600000
-0.001654	12.400000	10.200000
-0.001652	11.600000	10.000000
-0.001650	10.400000	9.600000
-0.001648	9.600000	9.200000
-0.001646	8.400000	8.800000
-0.001644	7.600000	8.400000
-0.001642	6.800000	8.000000
-0.001640	5.600000	7.600000
-0.001638	4.800000	7.200000
-0.001636	4.000000	6.800000
-0.001634	2.800000	6.200000
-0.001632	2.000000	5.600000
-0.001630	1.200000	5.200000
-0.001628	0.000000	4.800000
-0.001626	-0.800000	4.200000
-0.001624	-1.600000	3.600000
-0.001622	-2.400000	3.000000
-0.001620	-3.600000	2.600000
-0.001618	-4.400000	2.000000
-0.001616	-5.600000	1.400000
-0.001614	-6.400000	0.800000
-0.001612	-7.200000	0.200000
-0.001610	-8.000000	-0.400000
-0.001608	-9.200000	-1.000000
-0.001606	-10.000000	-1.600000
-0.001604	-10.800000	-2.200000
-0.001602	-11.600000	-2.800000
-0.001600	-12.800000	-3.400000
-0.001598	-13.600000	-4.000000
-0.001596	-14.800000	-4.600000
-0.001594	-15.600000	-5.400000
-0.001592	-16.800000	-6.000000
-0.001590	-17.600000	-6.600000
-0.001588	-18.400000	-7.000000
-0.001586	-19.600000	-7.600000
-0.001584	-20.400000	-8.200000
-0.001582	-21.600000	-8.800000
-0.001580	-22.400000	-9.400000
-0.001578	-23.200000	-10.000000
-0.001576	-24.400000	-10.600000
-0.001574	-25.200000	-11.000000
-0.001572	-26.400000	-11.600000
-0.001570	-27.200000	-12.000000
-0.001568	-28.400000	-12.600000
-0.001566	-29.200000	-13.000000
-0.001564	-29.200000	-13.200000
-0.001562	-27.600000	-13.200000
-0.001560	-26.800000	-13.200000
-0.001558	-26.000000	-13.200000
-0.001556	-24.800000	-13.000000
-0.001554	-24.400000	-13.000000
-0.001552	-22.800000	-13.000000
-0.001550	-22.400000	-12.800000
-0.001548	-21.200000	-12.600000
-0.001546	-20.400000	-12.600000
-0.001544	-19.200000	-12.200000
-0.001542	-18.800000	-12.000000
-0.001540	-17.600000	-11.800000
-0.001538	-16.800000	-11.600000
-0.001536	-15.600000	-11.200000
-0.001534	-14.800000	-11.200000
-0.001532	-13.600000	-10.800000
-0.001530	-12.800000	-10.600000
-0.001528	-11.600000	-10.200000
-0.001526	-10.800000	-9.800000
-0.001524	-10.000000	-9.400000
-0.001522	-8.800000	-9.000000
-0.001520	-8.000000	-8.600000
-0.001518	-7.200000	-8.200000
-0.001516	-6.000000	-7.800000
-0.001514	-5.200000	-7.200000
-0.001512	-4.400000	-6.800000
-0.001510	-3.200000	-6.400000
-0.001508	-2.000000	-5.800000
-0.001506	-1.200000	-5.400000
-0.001504	-0.400000	-4.800000
-0.001502	0.400000	-4.400000
-0.001500	1.600000	-3.800000
-0.001498	2.400000	-3.200000
-0.001496	3.600000	-2.600000
-0.001494	4.400000	-2.000000
-0.001492	5.200000	-1.400000
-0.001490	6.000000	-0.800000
-0.001488	7.200000	-0.200000
-0.001486	8.000000	0.400000
-0.001484	9.200000	1.000000
-0.001482	10.000000	1.600000
-0.001480	10.800000	2.200000
-0.001478	12.000000	2.800000
-0.001476	12.800000	3.400000
-0.001474	13.600000	4.000000
-0.001472	14.800000	4.600000
-0.001470	15.600000	5.200000
-0.001468	16.800000	5.800000
-0.001466	17.600000	6.400000
-0.001464	18.400000	7.000000
-0.001462	19.200000	7.600000
-0.001460	20.400000	8.000000
-0.001458	21.200000	8.600000
-0.001456	22.000000	9.200000
-0.001454	23.200000	9.800000
-0.001452	24.000000	10.200000
-0.001450	24.800000	10.800000
-0.001448	26.000000	11.200000
-0.001446	26.800000	11.800000
-0.001444	28.000000	12.200000
-0.001442	28.800000	12.600000
-0.001440	29.200000	13.000000
-0.001438	28.000000	13.000000
-0.001436	27.200000	13.000000
-0.001434	26.400000	13.000000
-0.001432	25.200000	12.800000
-0.001430	24.400000	12.800000
-0.001428	23.200000	12.600000
-0.001426	22.800000	12.600000
-0.001424	21.200000	12.400000
-0.001422	20.800000	12.400000
-0.001420	19.200000	12.000000
-0.001418	18.800000	12.000000
-0.001416	17.600000	11.800000
-0.001414	17.200000	11.600000
-0.001412	15.600000	11.200000
-0.001410	15.200000	11.000000
-0.001408	14.000000	10.800000
-0.001406	13.200000	10.600000
-0.001404	12.000000	10.200000
-0.001402	11.200000	9.800000
-0.001400	10.400000	9.400000
-0.001398	9.200000	9.200000
-0.001396	8.400000	8.800000
-0.001394	7.600000	8.200000
-0.001392	6.400000	7.800000
-0.001390	5.600000	7.400000
-0.001388	4.400000	7.000000
-0.001386	3.600000	6.600000
-0.001384	2.800000	6.000000
-0.001382	1.600000	5.600000
-0.001380	0.800000	5.000000
-0.001378	0.000000	4.600000
-0.001376	-0.800000	4.000000
-0.001374	-2.000000	3.400000
-0.001372	-2.800000	3.000000
-0.001370	-4.000000	2.400000
-0.001368	-4.800000	1.800000
-0.001366	-5.600000	1.200000
-0.001364	-6.400000	0.600000
-0.001362	-7.600000	0.000000
-0.001360	-8.400000	-0.600000
-0.001358	-9.200000	-1.200000
-0.001356	-10.400000	-1.800000
-0.001354	-11.200000	-2.400000
-0.001352	-12.000000	-3.000000
-0.001350	-13.200000	-3.600000
-0.001348	-14.000000	-4.200000
-0.001346	-14.800000	-4.800000
-0.001344	-16.000000	-5.400000
-0.001342	-16.800000	-6.200000
-0.001340	-18.000000	-6.600000
-0.001338	-18.800000	-7.200000
-0.001336	-20.000000	-7.800000
-0.001334	-20.800000	-8.400000
-0.001332	-22.000000	-9.000000
-0.001330	-22.800000	-9.600000
-0.001328	-23.600000	-10.200000
-0.001326	-24.800000	-10.600000
-0.001324	-25.600000	-11.200000
-0.001322	-26.400000	-11.600000
-0.001320	-27.600000	-12.200000
-0.001318	-28.400000	-12.800000
-0.001316	-29.200000	-13.200000
-0.001314	-28.800000	-13.200000
-0.001312	-27.200000	-13.200000
-0.001310	-26.800000	-13.200000
-0.001308	-25.600000	-13.200000
-0.001306	-24.800000	-13.000000
-0.001304	-24.000000	-13.000000
-0.001302	-22.800000	-13.000000
-0.001300	-22.000000	-12.800000
-0.001298	-20.800000	-12.600000
-0.001296	-20.400000	-12.400000
-0.001294	-18.800000	-12.200000
-0.001292	-18.400000	-12.000000
-0.001290	-17.200000	-11.800000
-0.001288	-16.400000	-11.600000
-0.001286	-15.200000	-11.200000
-0.001284	-14.400000	-11.000000
-0.001282	-13.200000	-10.800000
-0.001280	-12.400000	-10.400000
-0.001278	-11.600000	-10.000000
-0.001276	-10.800000	-9.600000
-0.001274	-9.600000	-9.200000
-0.001272	-8.800000	-9.000000
-0.001270	-7.600000	-8.600000
-0.001268	-6.800000	-8.000000
-0.001266	-6.000000	-7.600000
-0.001264	-4.800000	-7.200000
-0.001262	-4.000000	-6.600000
-0.001260	-2.800000	-6.200000
-0.001258	-2.000000	-5.800000
-0.001256	-0.800000	-5.200000
-0.001254	0.000000	-4.600000
-0.001252	0.800000	-4.200000
-0.001250	1.600000	-3.600000
-0.001248	2.800000	-3.000000
-0.001246	3.600000	-2.400000
-0.001244	4.800000	-1.800000
-0.001242	5.600000	-1.200000
-0.001240	6.400000	-0.600000
-0.001238	7.600000	0.000000
-0.001236	8.400000	0.600000
-0.001234	9.200000	1.200000
-0.001232	10.400000	1.800000
-0.001230	11.200000	2.400000
-0.001228	12.000000	3.000000
-0.001226	13.200000	3.600000
-0.001224	14.000000	4.200000
-0.001222	14.800000	4.800000
-0.001220	16.000000	5.400000
-0.001218	16.800000	6.000000
-0.001216	17.600000	6.600000
-0.001214	18.800000	7.200000
-0.001212	19.600000	7.800000
-0.001210	20.400000	8.200000
-0.001208	21.600000	8.800000
-0.001206	22.400000	9.400000
-0.001204	23.600000	9.800000
-0.001202	24.400000	10.400000
-0.001200	25.200000	11.000000
-0.001198	26.000000	11.400000
-0.001196	27.200000	11.800000
-0.001194	28.000000	12.400000
-0.001192	28.800000	12.800000
-0.001190	29.200000	13.000000
-0.001188	27.600000	13.000000
-0.001186	27.200000	13.000000
-0.001184	25.600000	12.800000
-0.001182	25.200000	13.000000
-0.001180	24.000000	12.800000
-0.001178	23.200000	12.800000
-0.001176	22.400000	12.600000
-0.001174	21.200000	12.400000
-0.001172	20.400000	12.200000
-0.001170	19.200000	12.000000
-0.001168	18.800000	12.000000
-0.001166	17.200000	11.600000
-0.001164	16.800000	11.400000
-0.001162	15.600000	11.200000
-0.001160	14.800000	11.000000
-0.001158	13.600000	10.600000
-0.001156	12.800000	10.400000
-0.001154	12.000000	10.000000
-0.001152	10.800000	9.600000
-0.001150	10.000000	9.400000
-0.001148	9.200000	9.000000
-0.001146	8.000000	8.600000
-0.001144	7.200000	8.200000
-0.001142	6.000000	7.800000
-0.001140	5.200000	7.200000
-0.001138	4.400000	6.800000
-0.001136	3.200000	6.400000
-0.001134	2.400000	5.800000
-0.001132	1.600000	5.400000
-0.001130	0.400000	4.800000
-0.001128	-0.400000	4.400000
-0.001126	-1.200000	3.800000
-0.001124	-2.400000	3.200000
-0.001122	-3.200000	2.800000
-0.001120	-4.000000	2.200000
-0.001118	-5.200000	1.600000
-0.001116	-6.000000	1.000000
-0.001114	-6.800000	0.400000
-0.001112	-7.600000	-0.200000
-0.001110	-8.800000	-0.800000
-0.001108	-9.600000	-1.400000
-0.001106	-10.400000	-2.000000
-0.001104	-11.600000	-2.600000
-0.001102	-12.400000	-3.200000
-0.001100	-13.200000	-3.800000
-0.001098	-14.400000	-4.400000
-0.001096	-15.200000	-5.000000
-0.001094	-16.400000	-5.600000
-0.001092	-17.200000	-6.200000
-0.001090	-18.000000	-6.800000
-0.001088	-19.200000	-7.400000
-0.001086	-20.000000	-8.000000
-0.001084	-21.200000	-8.600000
-0.001082	-22.000000	-9.200000
-0.001080	-23.200000	-9.800000
-0.001078	-24.000000	-10.400000
-0.001076	-24.800000	-10.800000
-0.001074	-26.000000	-11.400000
-0.001072	-26.800000	-11.800000
-0.001070	-28.000000	-12.400000
-0.001068	-28.800000	-12.800000
-0.001066	-29.200000	-13.200000
-0.001064	-28.400000	-13.200000
-0.001062	-27.200000	-13.200000
-0.001060	-26.400000	-13.200000
-0.001058	-25.200000	-13.000000
-0.001056	-24.800000	-13.000000
-0.001054	-23.600000	-13.000000
-0.001052	-22.800000	-12.800000
-0.001050	-21.600000	-12.600000
-0.001048	-20.800000	-12.600000
-0.001046	-19.600000	-12.400000
-0.001044	-18.800000	-12.200000
-0.001042	-18.000000	-12.000000
-0.001040	-16.800000	-11.600000
-0.001038	-16.000000	-11.400000
-0.001036	-14.800000	-11.200000
-0.001034	-14.000000	-11.000000
-0.001032	-13.200000	-10.600000
-0.001030	-12.400000	-10.200000
-0.001028	-11.200000	-9.800000
-0.001026	-10.400000	-9.400000
-0.001024	-9.200000	-9.200000
-0.001022	-8.400000	-8.800000
-0.001020	-7.200000	-8.400000
-0.001018	-6.400000	-8.000000
-0.001016	-5.600000	-7.400000
-0.001014	-4.800000	-7.000000
-0.001012	-3.600000	-6.600000
-0.001010	-2.400000	-6.000000
-0.001008	-1.600000	-5.600000
-0.001006	-0.800000	-5.000000
-0.001004	0.400000	-4.600000
-0.001002	1.200000	-4.000000
-0.001000	2.000000	-3.400000
-0.000998	3.200000	-2.800000
-0.000996	4.000000	-2.200000
-0.000994	4.800000	-1.600000
-0.000992	6.000000	-1.200000
-0.000990	6.800000	-0.400000
-0.000988	7.600000	0.200000
-0.000986	8.800000	0.800000
-0.000984	9.600000	1.400000
-0.000982	10.400000	2.000000
-0.000980	11.600000	2.600000
-0.000978	12.400000	3.200000
-0.000976	13.200000	3.800000
-0.000974	14.400000	4.400000
-0.000972	15.200000	5.000000
-0.000970	16.400000	5.600000
-0.000968	17.200000	6.200000
-0.000966	18.000000	6.800000
-0.000964	18.800000	7.400000
-0.000962	20.000000	7.800000
-0.000960	20.800000	8.400000
-0.000958	21.600000	9.000000
-0.000956	22.800000	9.600000
-0.000954	23.600000	10.000000
-0.000952	24.800000	10.600000
-0.000950	25.600000	11.000000
-0.000948	26.400000	11.600000
-0.000946	27.600000	12.000000
-0.000944	28.400000	12.400000
-0.000942	29.200000	13.000000
-0.000940	28.800000	13.000000
-0.000938	27.200000	13.000000
-0.000936	27.200000	13.000000
-0.000934	25.200000	12.800000
-0.000932	25.200000	13.000000
-0.000930	23.600000	12.800000
-0.000928	23.200000	12.800000
-0.000926	21.600000	12.600000
-0.000924	21.200000	12.400000
-0.000922	20.000000	12.200000
-0.000920	19.200000	12.000000
-0.000918	18.000000	11.800000
-0.000916	17.200000	11.600000
-0.000914	16.400000	11.400000
-0.000912	15.200000	11.200000
-0.000910	14.400000	10.800000
-0.000908	13.600000	10.600000
-0.000906	12.400000	10.200000
-0.000904	11.600000	10.000000
-0.000902	10.400000	9.600000
-0.000900	9.600000	9.200000
-0.000898	8.800000	9.000000
-0.000896	7.600000	8.400000
-0.000894	6.800000	8.000000
-0.000892	6.000000	7.600000
-0.000890	4.800000	7.200000
-0.000888	4.000000	6.800000
-0.000886	3.200000	6.200000
-0.000884	2.000000	5.800000
-0.000882	1.200000	5.200000
-0.000880	0.400000	4.800000
-0.000878	-0.800000	4.200000
-0.000876	-1.600000	3.600000
-0.000874	-2.400000	3.200000
-0.000872	-3.600000	2.600000
-0.000870	-4.400000	2.000000
-0.000868	-5.600000	1.400000
-0.000866	-6.400000	0.800000
-0.000864	-7.200000	0.200000
-0.000862	-8.000000	-0.400000
-0.000860	-8.800000	-1.000000
-0.000858	-10.000000	-1.600000
-0.000856	-10.800000	-2.200000
-0.000854	-11.600000	-2.800000
-0.000852	-12.800000	-3.400000
-0.000850	-13.600000	-4.000000
-0.000848	-14.400000	-4.600000
-0.000846	-15.600000	-5.200000
-0.000844	-16.800000	-5.800000
-0.000842	-17.600000	-6.400000
-0.000840	-18.400000	-7.000000
-0.000838	-19.600000	-7.600000
-0.000836	-20.400000	-8.200000
-0.000834	-21.600000	-8.800000
-0.000832	-22.400000	-9.400000
-0.000830	-23.200000	-10.000000
-0.000828	-24.400000	-10.600000
-0.000826	-25.200000	-11.000000
-0.000824	-26.400000	-11.400000
-0.000822	-27.200000	-12.000000
-0.000820	-28.000000	-12.600000
-0.000818	-29.200000	-13.000000
-0.000816	-29.200000	-13.200000
-0.000814	-28.000000	-13.200000
-0.000812	-27.200000	-13.200000
-0.000810	-26.000000	-13.200000
-0.000808	-24.800000	-13.000000
-0.000806	-24.400000	-13.000000
-0.000804	-23.200000	-13.000000
-0.000802	-22.800000	-12.800000
-0.000800	-21.200000	-12.600000
-0.000798	-20.400000	-12.400000
-0.000796	-19.200000	-12.200000
-0.000794	-18.800000	-12.200000
-0.000792	-17.600000	-11.800000
-0.000790	-16.800000	-11.600000
-0.000788	-15.600000	-11.400000
-0.000786	-14.800000	-11.200000
-0.000784	-13.600000	-10.800000
-0.000782	-12.800000	-10.600000
-0.000780	-12.000000	-10.200000
-0.000778	-10.800000	-9.800000
-0.000776	-10.000000	-9.400000
-0.000774	-9.200000	-9.000000
-0.000772	-8.000000	-8.600000
-0.000770	-7.200000	-8.200000
-0.000768	-6.000000	-7.800000
-0.000766	-5.200000	-7.200000
-0.000764	-4.400000	-6.800000
-0.000762	-3.200000	-6.400000
-0.000760	-2.400000	-6.000000
-0.000758	-1.200000	-5.400000
-0.000756	-0.400000	-4.800000
-0.000754	0.400000	-4.400000
-0.000752	1.200000	-3.800000
-0.000750	2.400000	-3.200000
-0.000748	3.200000	-2.600000
-0.000746	4.400000	-2.000000
-0.000744	5.200000	-1.600000
-0.000742	6.000000	-1.000000
-0.000740	7.200000	-0.200000
-0.000738	8.000000	0.400000
-0.000736	9.200000	1.000000
-0.000734	10.000000	1.600000
-0.000732	10.800000	2.200000
-0.000730	12.000000	2.800000
-0.000728	12.800000	3.400000
-0.000726	13.600000	4.000000
-0.000724	14.400000	4.600000
-0.000722	15.600000	5.200000
-0.000720	16.400000	5.800000
-0.000718	17.600000	6.400000
-0.000716	18.400000	7.000000
-0.000714	19.200000	7.400000
-0.000712	20.000000	8.000000
-0.000710	21.200000	8.600000
-0.000708	22.000000	9.200000
-0.000706	23.200000	9.600000
-0.000704	24.000000	10.200000
-0.000702	24.800000	10.800000
-0.000700	25.600000	11.200000
-0.000698	26.800000	11.600000
-0.000696	27.600000	12.200000
-0.000694	28.800000	12.600000
-0.000692	29.200000	13.000000
-0.000690	28.000000	13.000000
-0.000688	27.200000	13.000000
-0.000686	26.400000	13.000000
-0.000684	25.200000	12.800000
-0.000682	24.800000	13.000000
-0.000680	23.200000	12.600000
-0.000678	22.800000	12.800000
-0.000676	21.200000	12.400000
-0.000674	20.800000	12.400000
-0.000672	19.600000	12.200000
-0.000670	18.800000	12.000000
-0.000668	17.600000	11.800000
-0.000666	17.200000	11.600000
-0.000664	16.000000	11.200000
-0.000662	15.200000	11.000000
-0.000660	14.000000	10.800000
-0.000658	13.200000	10.400000
-0.000656	12.000000	10.200000
-0.000654	11.200000	9.800000
-0.000652	10.400000	9.400000
-0.000650	9.200000	9.200000
-0.000648	8.400000	8.800000
-0.000646	7.600000	8.400000
-0.000644	6.400000	7.800000
-0.000642	5.600000	7.400000
-0.000640	4.800000	7.000000
-0.000638	3.600000	6.600000
-0.000636	2.800000	6.000000
-0.000634	1.600000	5.600000
-0.000632	0.800000	5.000000
-0.000630	0.000000	4.600000
-0.000628	-0.800000	4.000000
-0.000626	-2.000000	3.400000
-0.000624	-2.800000	3.000000
-0.000622	-4.000000	2.400000
-0.000620	-4.800000	1.800000
-0.000618	-5.600000	1.200000
-0.000616	-6.400000	0.600000
-0.000614	-7.200000	0.200000
-0.000612	-8.400000	-0.600000
-0.000610	-9.200000	-1.200000
-0.000608	-10.400000	-1.800000
-0.000606	-11.200000	-2.400000
-0.000604	-12.000000	-3.000000
-0.000602	-12.800000	-3.600000
-0.000600	-14.000000	-4.200000
-0.000598	-14.800000	-4.800000
-0.000596	-16.000000	-5.400000
-0.000594	-16.800000	-6.000000
-0.000592	-18.000000	-6.600000
-0.000590	-18.800000	-7.200000
-0.000588	-19.600000	-7.800000
-0.000586	-20.800000	-8.400000
-0.000584	-21.600000	-9.000000
-0.000582	-22.800000	-9.600000
-0.000580	-23.600000	-10.200000
-0.000578	-24.800000	-10.600000
-0.000576	-25.600000	-11.200000
-0.000574	-26.400000	-11.600000
-0.000572	-27.600000	-12.200000
-0.000570	-28.400000	-12.600000
-0.000568	-29.200000	-13.000000
-0.000566	-29.200000	-13.200000
-0.000564	-27.600000	-13.200000
-0.000562	-26.800000	-13.200000
-0.000560	-25.600000	-13.200000
-0.000558	-24.800000	-13.000000
-0.000556	-24.000000	-13.000000
-0.000554	-22.800000	-13.000000
-0.000552	-22.400000	-12.800000
-0.000550	-20.800000	-12.600000
-0.000548	-20.400000	-12.400000
-0.000546	-19.200000	-12.200000
-0.000544	-18.400000	-12.000000
-0.000542	-17.200000	-11.800000
-0.000540	-16.400000	-11.600000
-0.000538	-15.200000	-11.200000
-0.000536	-14.400000	-11.000000
-0.000534	-13.200000	-10.800000
-0.000532	-12.800000	-10.400000
-0.000530	-11.600000	-10.000000
-0.000528	-10.800000	-9.600000
-0.000526	-9.600000	-9.200000
-0.000524	-8.800000	-9.000000
-0.000522	-7.600000	-8.600000
-0.000520	-6.800000	-8.200000
-0.000518	-6.000000	-7.600000
-0.000516	-5.200000	-7.200000
-0.000514	-4.000000	-6.800000
-0.000512	-3.200000	-6.200000
-0.000510	-2.000000	-5.800000
-0.000508	-1.200000	-5.200000
-0.000506	0.000000	-4.600000
-0.000504	0.800000	-4.200000
-0.000502	1.600000	-3.600000
-0.000500	2.400000	-3.000000
-0.000498	3.600000	-2.400000
-0.000496	4.800000	-2.000000
-0.000494	5.600000	-1.400000
-0.000492	6.400000	-0.800000
-0.000490	7.200000	0.000000
-0.000488	8.400000	0.600000
-0.000486	9.200000	1.200000
-0.000484	10.400000	1.800000
-0.000482	11.200000	2.400000
-0.000480	12.000000	3.000000
-0.000478	13.200000	3.600000
-0.000476	14.000000	4.200000
-0.000474	14.800000	4.800000
-0.000472	16.000000	5.200000
-0.000470	16.800000	5.800000
-0.000468	17.600000	6.600000
-0.000466	18.400000	7.200000
-0.000464	19.600000	7.600000
-0.000462	20.400000	8.200000
-0.000460	21.600000	8.800000
-0.000458	22.400000	9.400000
-0.000456	23.200000	9.800000
-0.000454	24.400000	10.400000
-0.000452	25.200000	10.800000
-0.000450	26.000000	11.400000
-0.000448	26.800000	11.800000
-0.000446	28.000000	12.400000
-0.000444	28.800000	12.800000
-0.000442	29.200000	13.000000
-0.000440	27.600000	13.000000
-0.000438	27.200000	13.000000
-0.000436	25.600000	12.800000
-0.000434	25.200000	12.800000
-0.000432	24.000000	12.800000
-0.000430	23.200000	12.800000
-0.000428	22.400000	12.600000
-0.000426	21.200000	12.400000
-0.000424	20.400000	12.400000
-0.000422	19.200000	12.000000
-0.000420	18.800000	12.000000
-0.000418	17.200000	11.600000
-0.000416	16.800000	11.600000
-0.000414	15.600000	11.200000
-0.000412	14.800000	11.000000
-0.000410	13.600000	10.600000
-0.000408	12.800000	10.400000
-0.000406	12.000000	10.000000
-0.000404	10.800000	9.800000
-0.000402	10.000000	9.400000
-0.000400	9.200000	9.000000
-0.000398	8.000000	8.600000
-0.000396	7.200000	8.200000
-0.000394	6.000000	7.800000
-0.000392	5.200000	7.400000
-0.000390	4.400000	6.800000
-0.000388	3.600000	6.400000
-0.000386	2.400000	5.800000
-0.000384	1.600000	5.400000
-0.000382	0.800000	5.000000
-0.000380	-0.400000	4.400000
-0.000378	-1.200000	3.800000
-0.000376	-2.000000	3.400000
-0.000374	-3.200000	2.800000
-0.000372	-4.000000	2.200000
-0.000370	-5.200000	1.600000
-0.000368	-6.000000	1.000000
-0.000366	-6.800000	0.600000
-0.000364	-7.600000	0.000000
-0.000362	-8.400000	-0.800000
-0.000360	-9.600000	-1.400000
-0.000358	-10.400000	-2.000000
-0.000356	-11.200000	-2.600000
-0.000354	-12.400000	-3.200000
-0.000352	-13.200000	-3.800000
-0.000350	-14.400000	-4.400000
-0.000348	-15.200000	-5.000000
-0.000346	-16.400000	-5.600000
-0.000344	-17.200000	-6.200000
-0.000342	-18.000000	-6.800000
-0.000340	-19.200000	-7.400000
-0.000338	-20.000000	-8.000000
-0.000336	-21.200000	-8.600000
-0.000334	-22.000000	-9.200000
-0.000332	-22.800000	-9.800000
-0.000330	-24.000000	-10.400000
-0.000328	-24.800000	-10.800000
-0.000326	-26.000000	-11.400000
-0.000324	-26.800000	-11.800000
-0.000322	-27.600000	-12.400000
-0.000320	-28.800000	-12.800000
-0.000318	-29.200000	-13.200000
-0.000316	-28.400000	-13.200000
-0.000314	-27.200000	-13.200000
-0.000312	-26.800000	-13.200000
-0.000310	-25.200000	-13.000000
-0.000308	-24.800000	-13.000000
-0.000306	-23.600000	-13.000000
-0.000304	-22.800000	-12.800000
-0.000302	-21.600000	-12.800000
-0.000300	-20.800000	-12.600000
-0.000298	-20.000000	-12.400000
-0.000296	-18.800000	-12.200000
-0.000294	-18.000000	-12.000000
-0.000292	-16.800000	-11.600000
-0.000290	-16.400000	-11.400000
-0.000288	-14.800000	-11.200000
-0.000286	-14.400000	-11.000000
-0.000284	-13.200000	-10.600000
-0.000282	-12.400000	-10.400000
-0.000280	-11.200000	-10.000000
-0.000278	-10.400000	-9.600000
-0.000276	-9.200000	-9.200000
-0.000274	-8.400000	-8.800000
-0.000272	-7.600000	-8.400000
-0.000270	-6.400000	-8.000000
-0.000268	-5.600000	-7.400000
-0.000266	-4.800000	-7.000000
-0.000264	-3.600000	-6.600000
-0.000262	-2.800000	-6.200000
-0.000260	-1.600000	-5.600000
-0.000258	-0.800000	-5.000000
-0.000256	0.400000	-4.600000
-0.000254	1.200000	-4.000000
-0.000252	2.000000	-3.400000
-0.000250	2.800000	-2.800000
-0.000248	4.000000	-2.400000
-0.000246	4.800000	-1.800000
-0.000244	5.600000	-1.200000
-0.000242	6.800000	-0.600000
-0.000240	7.600000	0.200000
-0.000238	8.800000	0.800000
-0.000236	9.600000	1.200000
-0.000234	10.400000	2.000000
-0.000232	11.600000	2.600000
-0.000230	12.400000	3.200000
-0.000228	13.200000	3.800000
-0.000226	14.000000	4.400000
-0.000224	15.200000	5.000000
-0.000222	16.400000	5.400000
-0.000220	17.200000	6.200000
-0.000218	18.000000	6.800000
-0.000216	18.800000	7.400000
-0.000214	20.000000	7.800000
-0.000212	20.800000	8.400000
-0.000210	21.600000	9.000000
-0.000208	22.800000	9.400000
-0.000206	23.600000	10.000000
-0.000204	24.400000	10.600000
-0.000202	25.600000	11.000000
-0.000200	26.400000	11.600000
-0.000198	27.200000	12.000000
-0.000196	28.400000	12.400000
-0.000194	29.200000	12.800000
-0.000192	28.800000	13.000000
-0.000190	27.200000	13.000000
-0.000188	27.200000	13.000000
-0.000186	25.200000	12.800000
-0.000184	25.200000	13.000000
-0.000182	23.600000	12.800000
-0.000180	23.200000	12.800000
-0.000178	22.000000	12.600000
-0.000176	21.200000	12.400000
-0.000174	20.000000	12.200000
-0.000172	19.200000	12.000000
-0.000170	18.400000	12.000000
-0.000168	17.200000	11.600000
-0.000166	16.400000	11.400000
-0.000164	15.600000	11.200000
-0.000162	14.400000	11.000000
-0.000160	13.600000	10.600000
-0.000158	12.400000	10.400000
-0.000156	11.600000	10.000000
-0.000154	10.800000	9.600000
-0.000152	9.600000	9.200000
-0.000150	8.800000	9.000000
-0.000148	8.000000	8.400000
-0.000146	6.800000	8.000000
-0.000144	6.000000	7.600000
-0.000142	5.200000	7.200000
-0.000140	4.000000	6.800000
-0.000138	3.200000	6.200000
-0.000136	2.000000	5.800000
-0.000134	1.200000	5.200000
-0.000132	0.400000	4.800000
-0.000130	-0.800000	4.200000
-0.000128	-1.600000	3.600000
-0.000126	-2.400000	3.200000
-0.000124	-3.600000	2.600000
-0.000122	-4.400000	2.000000
-0.000120	-5.200000	1.400000
-0.000118	-6.400000	1.000000
-0.000116	-7.200000	0.400000
-0.000114	-8.000000	-0.200000
-0.000112	-8.800000	-1.000000
-0.000110	-10.000000	-1.600000
-0.000108	-10.800000	-2.200000
-0.000106	-11.600000	-2.800000
-0.000104	-12.400000	-3.400000
-0.000102	-13.600000	-4.000000
-0.000100	-14.400000	-4.600000
-9.800000E-5	-15.600000	-5.200000
-9.600000E-5	-16.400000	-5.800000
-9.400000E-5	-17.600000	-6.400000
-9.200000E-5	-18.400000	-7.000000
-9.000000E-5	-19.600000	-7.600000
-8.800000E-5	-20.400000	-8.200000
-8.600000E-5	-21.200000	-8.800000
-8.400000E-5	-22.400000	-9.200000
-8.200000E-5	-23.200000	-10.000000
-8.000000E-5	-24.400000	-10.400000
-7.800000E-5	-25.200000	-11.000000
-7.600000E-5	-26.000000	-11.400000
-7.400000E-5	-27.200000	-12.000000
-7.200000E-5	-28.000000	-12.400000
-7.000000E-5	-28.800000	-13.000000
-6.800000E-5	-29.200000	-13.200000
-6.600000E-5	-28.000000	-13.200000
-6.400000E-5	-26.800000	-13.200000
-6.200000E-5	-26.400000	-13.200000
-6.000000E-5	-24.800000	-13.000000
-5.800000E-5	-24.400000	-13.000000
-5.600000E-5	-23.200000	-13.000000
-5.400000E-5	-22.800000	-12.800000
-5.200000E-5	-21.200000	-12.600000
-5.000000E-5	-20.800000	-12.600000
-4.800000E-5	-19.200000	-12.400000
-4.600000E-5	-18.800000	-12.200000
-4.400000E-5	-17.600000	-11.800000
-4.200000E-5	-16.800000	-11.600000
-4.000000E-5	-15.600000	-11.400000
-3.800000E-5	-14.800000	-11.200000
-3.600000E-5	-14.000000	-10.800000
-3.400000E-5	-12.800000	-10.600000
-3.200000E-5	-12.000000	-10.200000
-3.000000E-5	-11.200000	-9.800000
-2.800000E-5	-10.000000	-9.400000
-2.600000E-5	-9.200000	-9.000000
-2.400000E-5	-8.000000	-8.800000
-2.200000E-5	-7.200000	-8.200000
-2.000000E-5	-6.400000	-7.800000
-1.800000E-5	-5.600000	-7.200000
-1.600000E-5	-4.400000	-6.800000
-1.400000E-5	-3.600000	-6.400000
-1.200000E-5	-2.400000	-6.000000
-1.000000E-5	-1.200000	-5.400000
-8.000000E-6	-0.400000	-4.800000
-6.000000E-6	0.400000	-4.400000
-4.000000E-6	1.200000	-3.800000
-2.000000E-6	2.400000	-3.200000
0.000000	3.200000	-2.600000
2.000000E-6	4.400000	-2.200000
4.000000E-6	5.200000	-1.600000
6.000000E-6	6.000000	-1.000000
8.000000E-6	7.200000	-0.400000
1.000000E-5	8.000000	0.400000
1.200000E-5	8.800000	0.800000
1.400000E-5	10.000000	1.600000
1.600000E-5	10.800000	2.200000
1.800000E-5	12.000000	2.800000
2.000000E-5	12.800000	3.400000
2.200000E-5	13.600000	4.000000
2.400000E-5	14.400000	4.600000
2.600000E-5	15.600000	5.200000
2.800000E-5	16.400000	5.600000
3.000000E-5	17.600000	6.400000
3.200000E-5	18.400000	7.000000
3.400000E-5	19.200000	7.400000
3.600000E-5	20.000000	8.000000
3.800000E-5	21.200000	8.600000
4.000000E-5	22.000000	9.200000
4.200000E-5	22.800000	9.600000
4.400000E-5	24.000000	10.200000
4.600000E-5	24.800000	10.600000
4.800000E-5	25.600000	11.200000
5.000000E-5	26.400000	11.600000
5.200000E-5	27.600000	12.200000
5.400000E-5	28.400000	12.600000
5.600000E-5	29.200000	13.000000
5.800000E-5	28.400000	13.000000
6.000000E-5	27.200000	13.000000
6.200000E-5	26.400000	13.000000
6.400000E-5	25.200000	12.800000
6.600000E-5	24.800000	13.000000
6.800000E-5	23.200000	12.800000
7.000000E-5	22.800000	12.800000
7.200000E-5	21.200000	12.400000
7.400000E-5	20.800000	12.400000
7.600000E-5	19.600000	12.200000
7.800000E-5	19.200000	12.000000
8.000000E-5	17.600000	11.800000
8.200000E-5	17.200000	11.600000
8.400000E-5	16.000000	11.400000
8.600000E-5	15.200000	11.200000
8.800000E-5	14.000000	10.800000
9.000000E-5	13.200000	10.600000
9.200000E-5	12.400000	10.200000
9.400000E-5	11.200000	9.800000
9.600000E-5	10.400000	9.600000
9.800000E-5	9.600000	9.200000
1.000000E-4	8.400000	8.800000
0.000102	7.600000	8.400000
0.000104	6.400000	7.800000
0.000106	5.600000	7.400000
0.000108	4.800000	7.000000
0.000110	3.600000	6.600000
0.000112	2.800000	6.000000
0.000114	2.000000	5.600000
0.000116	1.200000	5.200000
0.000118	0.000000	4.600000
0.000120	-0.800000	4.000000
0.000122	-2.000000	3.600000
0.000124	-2.800000	3.000000
0.000126	-4.000000	2.400000
0.000128	-4.800000	1.800000
0.000130	-5.600000	1.200000
0.000132	-6.400000	0.800000
0.000134	-7.200000	0.200000
0.000136	-8.400000	-0.400000
0.000138	-9.200000	-1.200000
0.000140	-10.400000	-1.800000
0.000142	-10.800000	-2.400000
0.000144	-12.000000	-3.000000
0.000146	-12.800000	-3.600000
0.000148	-14.000000	-4.200000
0.000150	-14.800000	-4.800000
0.000152	-16.000000	-5.400000
0.000154	-16.800000	-6.000000
0.000156	-17.600000	-6.600000
0.000158	-18.800000	-7.200000
0.000160	-19.600000	-7.800000
0.000162	-20.800000	-8.400000
0.000164	-21.600000	-9.000000
0.000166	-22.800000	-9.400000
0.000168	-23.600000	-10.200000
0.000170	-24.400000	-10.600000
0.000172	-25.600000	-11.200000
0.000174	-26.400000	-11.600000
0.000176	-27.200000	-12.200000
0.000178	-28.400000	-12.600000
0.000180	-29.200000	-13.000000
0.000182	-29.200000	-13.200000
0.000184	-27.600000	-13.200000
0.000186	-26.800000	-13.200000
0.000188	-25.600000	-13.200000
0.000190	-24.800000	-13.000000
0.000192	-24.000000	-13.000000
0.000194	-22.800000	-13.000000
0.000196	-22.400000	-12.800000
0.000198	-20.800000	-12.600000
0.000200	-20.400000	-12.400000
0.000202	-19.200000	-12.200000
0.000204	-18.400000	-12.000000
0.000206	-17.200000	-11.800000
0.000208	-16.800000	-11.600000
0.000210	-15.200000	-11.200000
0.000212	-14.400000	-11.000000
0.000214	-13.600000	-10.800000
0.000216	-12.800000	-10.400000
0.000218	-11.600000	-10.000000
0.000220	-10.800000	-9.600000
0.000222	-9.600000	-9.400000
0.000224	-8.800000	-9.000000
0.000226	-8.000000	-8.600000
0.000228	-6.800000	-8.200000
0.000230	-6.000000	-7.600000
0.000232	-5.200000	-7.200000
0.000234	-4.000000	-6.800000
0.000236	-3.200000	-6.200000
0.000238	-2.000000	-5.800000
0.000240	-1.200000	-5.200000
0.000242	0.000000	-4.800000
0.000244	0.800000	-4.200000
0.000246	1.600000	-3.600000
0.000248	2.400000	-3.000000
0.000250	3.600000	-2.600000
0.000252	4.400000	-2.000000
0.000254	5.600000	-1.400000
0.000256	6.400000	-0.800000
0.000258	7.200000	-0.200000
0.000260	8.400000	0.400000
0.000262	9.200000	1.000000
0.000264	10.000000	1.800000
0.000266	11.200000	2.400000
0.000268	12.000000	2.800000
0.000270	12.800000	3.400000
0.000272	14.000000	4.200000
0.000274	14.800000	4.800000
0.000276	16.000000	5.200000
0.000278	16.800000	5.800000
0.000280	17.600000	6.600000
0.000282	18.400000	7.200000
0.000284	19.600000	7.600000
0.000286	20.400000	8.200000
0.000288	21.600000	8.800000
0.000290	22.400000	9.400000
0.000292	23.200000	9.800000
0.000294	24.000000	10.400000
0.000296	25.200000	10.800000
0.000298	26.000000	11.400000
0.000300	26.800000	11.800000
0.000302	28.000000	12.200000
0.000304	28.800000	12.800000
0.000306	29.200000	13.000000
0.000308	27.600000	13.000000
0.000310	27.200000	13.000000
0.000312	26.000000	13.000000
0.000314	25.200000	13.000000
0.000316	24.400000	12.800000
0.000318	23.200000	12.800000
0.000320	22.400000	12.600000
0.000322	21.200000	12.400000
0.000324	20.800000	12.400000
0.000326	19.200000	12.000000
0.000328	18.800000	12.000000
0.000330	17.600000	11.600000
0.000332	16.800000	11.600000
0.000334	15.600000	11.200000
0.000336	14.800000	11.000000
0.000338	13.600000	10.600000
0.000340	12.800000	10.400000
0.000342	12.000000	10.000000
0.000344	11.200000	9.800000
0.000346	10.000000	9.400000
0.000348	9.200000	9.000000
0.000350	8.000000	8.600000
0.000352	7.200000	8.200000
0.000354	6.400000	7.800000
0.000356	5.200000	7.400000
0.000358	4.400000	7.000000
0.000360	3.600000	6.400000
0.000362	2.400000	6.000000
0.000364	1.600000	5.400000
0.000366	0.800000	5.000000
0.000368	-0.400000	4.400000
0.000370	-1.200000	3.800000
0.000372	-2.000000	3.400000
0.000374	-3.200000	2.800000
0.000376	-4.000000	2.200000
0.000378	-5.200000	1.800000
0.000380	-6.000000	1.000000
0.000382	-6.800000	0.600000
0.000384	-7.600000	0.000000
0.000386	-8.400000	-0.600000
0.000388	-9.600000	-1.400000
0.000390	-10.400000	-2.000000
0.000392	-11.200000	-2.600000
0.000394	-12.400000	-3.200000
0.000396	-13.200000	-3.800000
0.000398	-14.400000	-4.400000
0.000400	-15.200000	-5.000000
0.000402	-16.000000	-5.600000
0.000404	-17.200000	-6.200000
0.000406	-18.000000	-6.800000
0.000408	-18.800000	-7.400000
0.000410	-20.000000	-8.000000
0.000412	-20.800000	-8.600000
0.000414	-22.000000	-9.000000
0.000416	-22.800000	-9.600000
0.000418	-24.000000	-10.200000
0.000420	-24.800000	-10.800000
0.000422	-25.600000	-11.200000
0.000424	-26.800000	-11.800000
0.000426	-27.600000	-12.200000
0.000428	-28.800000	-12.800000
0.000430	-29.200000	-13.200000
0.000432	-28.400000	-13.200000
0.000434	-27.200000	-13.200000
0.000436	-26.800000	-13.200000
0.000438	-25.200000	-13.000000
0.000440	-24.800000	-13.000000
0.000442	-23.600000	-13.000000
0.000444	-22.800000	-12.800000
0.000446	-22.000000	-12.800000
0.000448	-20.800000	-12.600000
0.000450	-20.000000	-12.400000
0.000452	-18.800000	-12.200000
0.000454	-18.400000	-12.000000
0.000456	-16.800000	-11.600000
0.000458	-16.400000	-11.400000
0.000460	-14.800000	-11.200000
0.000462	-14.400000	-11.000000
0.000464	-13.200000	-10.600000
0.000466	-12.400000	-10.400000
0.000468	-11.200000	-10.000000
0.000470	-10.400000	-9.600000
0.000472	-9.600000	-9.200000
0.000474	-8.400000	-8.800000
0.000476	-7.600000	-8.400000
0.000478	-6.800000	-8.000000
0.000480	-5.600000	-7.400000
0.000482	-4.800000	-7.000000
0.000484	-4.000000	-6.600000
0.000486	-2.800000	-6.200000
0.000488	-1.600000	-5.600000
0.000490	-0.800000	-5.000000
0.000492	0.000000	-4.600000
0.000494	1.200000	-4.000000
0.000496	2.000000	-3.400000
0.000498	2.800000	-3.000000
0.000500	4.000000	-2.400000
0.000502	4.800000	-1.800000
0.000504	5.600000	-1.200000
0.000506	6.800000	-0.600000
0.000508	7.600000	0.000000
0.000510	8.400000	0.600000
0.000512	9.600000	1.200000
0.000514	10.400000	2.000000
0.000516	11.200000	2.400000
0.000518	12.400000	3.000000
0.000520	13.200000	3.600000
0.000522	14.000000	4.400000
0.000524	15.200000	5.000000
0.000526	16.000000	5.400000
0.000528	17.200000	6.000000
0.000530	18.000000	6.800000
0.000532	18.800000	7.200000
0.000534	19.600000	7.800000
0.000536	20.800000	8.400000
0.000538	21.600000	9.000000
0.000540	22.800000	9.400000
0.000542	23.600000	10.000000
0.000544	24.400000	10.400000
0.000546	25.600000	11.000000
0.000548	26.400000	11.400000
0.000550	27.200000	12.000000
0.000552	28.400000	12.400000
0.000554	28.800000	12.800000
0.000556	28.800000	13.000000
0.000558	27.200000	13.000000
0.000560	27.200000	13.000000
0.000562	25.600000	12.800000
0.000564	25.200000	13.000000
0.000566	23.600000	12.800000
0.000568	23.200000	12.800000
0.000570	22.000000	12.600000
0.000572	21.200000	12.400000
0.000574	20.000000	12.200000
0.000576	19.200000	12.000000
0.000578	18.400000	12.000000
0.000580	17.200000	11.600000
0.000582	16.400000	11.400000
0.000584	15.600000	11.200000
0.000586	14.400000	11.000000
0.000588	13.600000	10.600000
0.000590	12.800000	10.400000
0.000592	11.600000	10.000000
0.000594	10.800000	9.600000
0.000596	9.600000	9.200000
0.000598	8.800000	9.000000
0.000600	8.000000	8.600000
0.000602	6.800000	8.000000
0.000604	6.000000	7.600000
0.000606	5.200000	7.200000
0.000608	4.000000	6.800000
0.000610	3.200000	6.400000
0.000612	2.000000	5.800000
0.000614	1.200000	5.200000
0.000616	0.400000	4.800000
0.000618	-0.400000	4.400000
0.000620	-1.600000	3.800000
0.000622	-2.400000	3.200000
0.000624	-3.600000	2.600000
0.000626	-4.400000	2.200000
0.000628	-5.200000	1.400000
0.000630	-6.000000	1.000000
0.000632	-6.800000	0.400000
0.000634	-8.000000	-0.200000
0.000636	-8.800000	-0.800000
0.000638	-10.000000	-1.600000
0.000640	-10.800000	-2.200000
0.000642	-11.600000	-2.600000
0.000644	-12.400000	-3.400000
0.000646	-13.600000	-4.000000
0.000648	-14.400000	-4.600000
0.000650	-15.600000	-5.200000
0.000652	-16.400000	-5.800000
0.000654	-17.200000	-6.400000
0.000656	-18.400000	-7.000000
0.000658	-19.200000	-7.600000
0.000660	-20.400000	-8.200000
0.000662	-21.200000	-8.800000
0.000664	-22.400000	-9.200000
0.000666	-23.200000	-9.800000
0.000668	-24.000000	-10.400000
0.000670	-25.200000	-11.000000
0.000672	-26.000000	-11.400000
0.000674	-26.800000	-12.000000
0.000676	-28.000000	-12.400000
0.000678	-28.800000	-13.000000
0.000680	-29.200000	-13.200000
0.000682	-28.000000	-13.200000
0.000684	-27.200000	-13.200000
0.000686	-26.400000	-13.200000
0.000688	-24.800000	-13.000000
0.000690	-24.800000	-13.000000
0.000692	-23.200000	-13.000000
0.000694	-22.800000	-12.800000
0.000696	-21.200000	-12.600000
0.000698	-20.800000	-12.600000
0.000700	-19.600000	-12.400000
0.000702	-18.800000	-12.200000
0.000704	-17.600000	-12.000000
0.000706	-16.800000	-11.600000
0.000708	-16.000000	-11.400000
0.000710	-14.800000	-11.200000
0.000712	-14.000000	-10.800000
0.000714	-12.800000	-10.600000
0.000716	-12.000000	-10.200000
0.000718	-11.200000	-9.800000
0.000720	-10.000000	-9.400000
0.000722	-9.200000	-9.000000
0.000724	-8.000000	-8.800000
0.000726	-7.200000	-8.200000
0.000728	-6.400000	-7.800000
0.000730	-5.600000	-7.400000
0.000732	-4.400000	-7.000000
0.000734	-3.600000	-6.400000
0.000736	-2.400000	-6.000000
0.000738	-1.600000	-5.400000
0.000740	-0.400000	-5.000000
0.000742	0.400000	-4.400000
0.000744	1.200000	-3.800000
0.000746	2.000000	-3.400000
0.000748	3.200000	-2.800000
0.000750	4.400000	-2.200000
0.000752	5.200000	-1.600000
0.000754	6.000000	-1.000000
0.000756	6.800000	-0.400000
0.000758	8.000000	0.200000
0.000760	8.800000	0.800000
0.000762	9.600000	1.400000
0.000764	10.800000	2.000000
0.000766	11.600000	2.600000
0.000768	12.800000	3.200000
0.000770	13.600000	4.000000
0.000772	14.400000	4.600000
0.000774	15.600000	5.000000
0.000776	16.400000	5.600000
0.000778	17.200000	6.200000
0.000780	18.000000	6.800000
0.000782	19.200000	7.400000
0.000784	20.000000	8.000000
0.000786	21.200000	8.600000
0.000788	22.000000	9.200000
0.000790	22.800000	9.600000
0.000792	24.000000	10.200000
0.000794	24.800000	10.600000
0.000796	25.600000	11.200000
0.000798	26.400000	11.600000
0.000800	27.600000	12.200000
0.000802	28.400000	12.600000
0.000804	29.200000	13.000000
0.000806	28.400000	13.000000
0.000808	27.200000	13.000000
0.000810	26.800000	13.000000
0.000812	25.200000	12.800000
0.000814	24.800000	13.000000
0.000816	23.200000	12.800000
0.000818	23.200000	12.800000
0.000820	21.600000	12.400000
0.000822	21.200000	12.400000
0.000824	19.600000	12.200000
0.000826	19.200000	12.000000
0.000828	18.000000	11.800000
0.000830	17.200000	11.600000
0.000832	16.000000	11.400000
0.000834	15.200000	11.200000
0.000836	14.000000	10.800000
0.000838	13.200000	10.600000
0.000840	12.400000	10.200000
0.000842	11.600000	9.800000
0.000844	10.400000	9.600000
0.000846	9.600000	9.200000
0.000848	8.400000	8.800000
0.000850	7.600000	8.400000
0.000852	6.800000	8.000000
0.000854	5.600000	7.600000
0.000856	4.800000	7.000000
0.000858	4.000000	6.600000
0.000860	2.800000	6.200000
0.000862	2.000000	5.600000
0.000864	1.200000	5.200000
0.000866	0.000000	4.600000
0.000868	-0.800000	4.200000
0.000870	-1.600000	3.600000
0.000872	-2.800000	3.000000
0.000874	-3.600000	2.400000
0.000876	-4.800000	2.000000
0.000878	-5.600000	1.400000
0.000880	-6.400000	0.800000
0.000882	-7.200000	0.200000
0.000884	-8.000000	-0.400000
0.000886	-9.200000	-1.000000
0.000888	-10.000000	-1.800000
0.000890	-10.800000	-2.200000
0.000892	-12.000000	-3.000000
0.000894	-12.800000	-3.600000
0.000896	-14.000000	-4.200000
0.000898	-14.800000	-4.800000
0.000900	-16.000000	-5.400000
0.000902	-16.800000	-6.000000
0.000904	-17.600000	-6.600000
0.000906	-18.800000	-7.200000
0.000908	-19.600000	-7.800000
0.000910	-20.400000	-8.400000
0.000912	-21.600000	-8.800000
0.000914	-22.800000	-9.400000
0.000916	-23.600000	-10.000000
0.000918	-24.400000	-10.600000
0.000920	-25.600000	-11.200000
0.000922	-26.400000	-11.600000
0.000924	-27.200000	-12.000000
0.000926	-28.400000	-12.600000
0.000928	-29.200000	-13.000000
0.000930	-29.200000	-13.200000
0.000932	-27.600000	-13.200000
0.000934	-26.800000	-13.200000
0.000936	-26.000000	-13.200000
0.000938	-24.800000	-13.000000
0.000940	-24.400000	-13.000000
0.000942	-22.800000	-13.000000
0.000944	-22.400000	-12.800000
0.000946	-20.800000	-12.600000
0.000948	-20.400000	-12.400000
0.000950	-19.200000	-12.200000
0.000952	-18.800000	-12.000000
0.000954	-17.200000	-11.800000
0.000956	-16.800000	-11.600000
0.000958	-15.200000	-11.200000
0.000960	-14.400000	-11.000000
0.000962	-13.600000	-10.800000
0.000964	-12.800000	-10.400000
0.000966	-11.600000	-10.200000
0.000968	-10.800000	-9.800000
0.000970	-10.000000	-9.400000
0.000972	-8.800000	-9.000000
0.000974	-8.000000	-8.600000
0.000976	-7.200000	-8.200000
0.000978	-6.000000	-7.600000
0.000980	-5.200000	-7.200000
0.000982	-4.000000	-6.800000
0.000984	-3.200000	-6.400000
0.000986	-2.000000	-5.800000
0.000988	-1.200000	-5.200000
0.000990	-0.400000	-4.800000
0.000992	0.800000	-4.200000
0.000994	1.600000	-3.800000
0.000996	2.400000	-3.200000
0.000998	3.600000	-2.600000
0.001000	4.400000	-2.000000
0.001002	5.200000	-1.400000
0.001004	6.400000	-0.800000
0.001006	7.200000	-0.200000
0.001008	8.000000	0.400000
0.001010	9.200000	1.000000
0.001012	10.000000	1.600000
0.001014	10.800000	2.200000
0.001016	12.000000	2.800000
0.001018	12.800000	3.400000
0.001020	14.000000	4.000000
0.001022	14.800000	4.800000
0.001024	16.000000	5.200000
0.001026	16.800000	5.800000
0.001028	17.600000	6.400000
0.001030	18.400000	7.000000
0.001032	19.600000	7.600000
0.001034	20.400000	8.200000
0.001036	21.600000	8.800000
0.001038	22.400000	9.200000
0.001040	23.200000	9.800000
0.001042	24.000000	10.200000
0.001044	25.200000	10.800000
0.001046	26.000000	11.400000
0.001048	26.800000	11.800000
0.001050	28.000000	12.200000
0.001052	28.800000	12.800000
0.001054	29.200000	13.000000
0.001056	27.600000	13.000000
0.001058	27.200000	13.000000
0.001060	26.000000	13.000000
0.001062	25.200000	12.800000
0.001064	24.400000	12.800000
0.001066	23.200000	12.800000
0.001068	22.800000	12.600000
0.001070	21.200000	12.400000
0.001072	20.800000	12.400000
0.001074	19.200000	12.000000
0.001076	18.800000	12.000000
0.001078	17.600000	11.800000
0.001080	17.200000	11.600000
0.001082	15.600000	11.200000
0.001084	15.200000	11.000000
0.001086	13.600000	10.800000
0.001088	13.200000	10.400000
0.001090	12.000000	10.000000
0.001092	11.200000	9.800000
0.001094	10.000000	9.400000
0.001096	9.200000	9.000000
0.001098	8.000000	8.600000
0.001100	7.200000	8.200000
0.001102	6.400000	7.800000
0.001104	5.600000	7.400000
0.001106	4.400000	7.000000
0.001108	3.600000	6.600000
0.001110	2.400000	6.000000
0.001112	1.600000	5.400000
0.001114	0.800000	5.000000
0.001116	-0.400000	4.400000
0.001118	-1.200000	4.000000
0.001120	-2.000000	3.400000
0.001122	-3.200000	2.800000
0.001124	-4.000000	2.400000
0.001126	-4.800000	1.800000
0.001128	-6.000000	1.200000
0.001130	-6.800000	0.600000
0.001132	-7.600000	0.000000
0.001134	-8.400000	-0.600000
0.001136	-9.600000	-1.200000
0.001138	-10.400000	-1.800000
0.001140	-11.200000	-2.400000
0.001142	-12.000000	-3.200000
0.001144	-13.200000	-3.800000
0.001146	-14.000000	-4.400000
0.001148	-15.200000	-5.000000
0.001150	-16.000000	-5.600000
0.001152	-17.200000	-6.200000
0.001154	-18.000000	-6.800000
0.001156	-18.800000	-7.200000
0.001158	-20.000000	-8.000000
0.001160	-20.800000	-8.600000
0.001162	-22.000000	-9.000000
0.001164	-22.800000	-9.600000
0.001166	-23.600000	-10.200000
0.001168	-24.800000	-10.800000
0.001170	-25.600000	-11.200000
0.001172	-26.800000	-11.800000
0.001174	-27.600000	-12.200000
0.001176	-28.800000	-12.800000
0.001178	-29.200000	-13.200000
0.001180	-28.800000	-13.200000
0.001182	-27.200000	-13.200000
0.001184	-26.800000	-13.200000
0.001186	-25.600000	-13.000000
0.001188	-24.800000	-13.000000
0.001190	-23.600000	-13.000000
0.001192	-22.800000	-13.000000
0.001194	-22.000000	-12.800000
0.001196	-20.800000	-12.600000
0.001198	-20.000000	-12.400000
0.001200	-18.800000	-12.200000
0.001202	-18.400000	-12.000000
0.001204	-16.800000	-11.800000
0.001206	-16.400000	-11.400000
0.001208	-14.800000	-11.200000
0.001210	-14.400000	-11.000000
0.001212	-13.200000	-10.600000
0.001214	-12.400000	-10.400000
0.001216	-11.200000	-10.000000
0.001218	-10.400000	-9.600000
0.001220	-9.600000	-9.200000
0.001222	-8.400000	-8.800000
0.001224	-7.600000	-8.400000
0.001226	-6.800000	-8.000000
0.001228	-6.000000	-7.600000
0.001230	-4.800000	-7.000000
0.001232	-4.000000	-6.600000
0.001234	-2.800000	-6.200000
0.001236	-2.000000	-5.600000
0.001238	-0.800000	-5.200000
0.001240	0.000000	-4.600000
0.001242	0.800000	-4.000000
0.001244	2.000000	-3.600000
0.001246	2.800000	-3.000000
0.001248	4.000000	-2.400000
0.001250	4.800000	-1.800000
0.001252	5.600000	-1.200000
0.001254	6.400000	-0.600000
0.001256	7.600000	0.000000
0.001258	8.400000	0.600000
0.001260	9.600000	1.200000
0.001262	10.400000	1.800000
0.001264	11.200000	2.400000
0.001266	12.400000	3.000000
0.001268	13.200000	3.600000
0.001270	14.000000	4.400000
0.001272	15.200000	5.000000
0.001274	16.000000	5.400000
0.001276	17.200000	6.000000
0.001278	18.000000	6.600000
0.001280	18.800000	7.200000
0.001282	19.600000	7.800000
0.001284	20.800000	8.400000
0.001286	21.600000	9.000000
0.001288	22.400000	9.400000
0.001290	23.600000	10.000000
0.001292	24.400000	10.400000
0.001294	25.200000	11.000000
0.001296	26.400000	11.400000
0.001298	27.200000	12.000000
0.001300	28.000000	12.400000
0.001302	28.800000	12.800000
0.001304	28.800000	13.000000
0.001306	27.200000	13.000000
0.001308	27.200000	13.000000
0.001310	25.600000	12.800000
0.001312	25.200000	13.000000
0.001314	24.000000	12.800000
0.001316	23.200000	12.800000
0.001318	22.000000	12.600000
0.001320	21.200000	12.400000
0.001322	20.400000	12.200000
0.001324	19.200000	12.000000
0.001326	18.400000	12.000000
0.001328	17.200000	11.600000
0.001330	16.800000	11.400000
0.001332	15.600000	11.200000
0.001334	14.400000	11.000000
0.001336	13.600000	10.600000
0.001338	12.800000	10.400000
0.001340	11.600000	10.000000
0.001342	10.800000	9.600000
0.001344	10.000000	9.200000
0.001346	8.800000	9.000000
0.001348	8.000000	8.600000
0.001350	6.800000	8.200000
0.001352	6.000000	7.600000
0.001354	5.200000	7.200000
0.001356	4.000000	6.800000
0.001358	3.200000	6.400000
0.001360	2.400000	5.800000
0.001362	1.200000	5.400000
0.001364	0.400000	4.800000
0.001366	-0.400000	4.400000
0.001368	-1.200000	3.800000
0.001370	-2.400000	3.200000
0.001372	-3.200000	2.800000
0.001374	-4.400000	2.200000
0.001376	-5.200000	1.600000
0.001378	-6.000000	1.000000
0.001380	-6.800000	0.400000
0.001382	-7.600000	-0.200000
0.001384	-8.800000	-0.800000
0.001386	-9.600000	-1.400000
0.001388	-10.800000	-2.000000
0.001390	-11.600000	-2.600000
0.001392	-12.400000	-3.400000
0.001394	-13.600000	-4.000000
0.001396	-14.400000	-4.600000
0.001398	-15.200000	-5.200000
0.001400	-16.400000	-5.800000
0.001402	-17.200000	-6.400000
0.001404	-18.400000	-7.000000
0.001406	-19.200000	-7.600000
0.001408	-20.400000	-8.200000
0.001410	-21.200000	-8.600000
0.001412	-22.400000	-9.200000
0.001414	-23.200000	-9.800000
0.001416	-24.000000	-10.400000
0.001418	-25.200000	-11.000000
0.001420	-26.000000	-11.400000
0.001422	-26.800000	-11.800000
0.001424	-28.000000	-12.400000
0.001426	-28.800000	-12.800000
0.001428	-29.200000	-13.200000
0.001430	-28.400000	-13.200000
0.001432	-27.200000	-13.200000
0.001434	-26.400000	-13.200000
0.001436	-25.200000	-13.000000
0.001438	-24.800000	-13.200000
0.001440	-23.200000	-13.000000
0.001442	-22.800000	-12.800000
0.001444	-21.200000	-12.600000
0.001446	-20.800000	-12.600000
0.001448	-19.600000	-12.400000
0.001450	-18.800000	-12.200000
0.001452	-18.000000	-12.000000
0.001454	-16.800000	-11.600000
0.001456	-16.000000	-11.400000
0.001458	-14.800000	-11.200000
0.001460	-14.000000	-11.000000
0.001462	-12.800000	-10.600000
0.001464	-12.000000	-10.200000
0.001466	-11.200000	-9.800000
0.001468	-10.400000	-9.400000
0.001470	-9.200000	-9.000000
0.001472	-8.400000	-8.800000
0.001474	-7.200000	-8.400000
0.001476	-6.400000	-7.800000
0.001478	-5.600000	-7.400000
0.001480	-4.400000	-7.000000
0.001482	-3.600000	-6.600000
0.001484	-2.400000	-6.000000
0.001486	-1.600000	-5.600000
0.001488	-0.400000	-5.000000
0.001490	0.400000	-4.400000
0.001492	1.200000	-4.000000
0.001494	2.000000	-3.400000
0.001496	3.200000	-2.800000
0.001498	4.000000	-2.200000
0.001500	5.200000	-1.600000
0.001502	6.000000	-1.000000
0.001504	6.800000	-0.400000
0.001506	8.000000	0.200000
0.001508	8.800000	0.800000
0.001510	9.600000	1.400000
0.001512	10.800000	2.000000
0.001514	11.600000	2.600000
0.001516	12.400000	3.200000
0.001518	13.600000	3.800000
0.001520	14.400000	4.400000
0.001522	15.200000	5.000000
0.001524	16.400000	5.600000
0.001526	17.200000	6.200000
0.001528	18.000000	6.800000
0.001530	19.200000	7.400000
0.001532	20.000000	8.000000
0.001534	20.800000	8.600000
0.001536	22.000000	9.000000
0.001538	22.800000	9.600000
0.001540	24.000000	10.200000
0.001542	24.800000	10.600000
0.001544	25.600000	11.200000
0.001546	26.400000	11.600000
0.001548	27.600000	12.000000
0.001550	28.400000	12.600000
0.001552	29.200000	13.000000
0.001554	28.400000	13.000000
0.001556	27.200000	13.000000
0.001558	26.800000	13.000000
0.001560	25.200000	12.800000
0.001562	25.200000	13.000000
0.001564	23.200000	12.800000
0.001566	23.200000	12.800000
0.001568	21.600000	12.400000
0.001570	21.200000	12.400000
0.001572	19.600000	12.200000
0.001574	19.200000	12.000000
0.001576	18.000000	11.800000
0.001578	17.200000	11.600000
0.001580	16.000000	11.400000
0.001582	15.200000	11.200000
0.001584	14.000000	10.800000
0.001586	13.600000	10.600000
0.001588	12.400000	10.200000
0.001590	11.600000	9.800000
0.001592	10.400000	9.600000
0.001594	9.600000	9.200000
0.001596	8.800000	8.800000
0.001598	7.600000	8.400000
0.001600	6.800000	8.000000
0.001602	5.600000	7.600000
0.001604	4.800000	7.200000
0.001606	4.000000	6.600000
0.001608	2.800000	6.200000
0.001610	2.000000	5.600000
0.001612	1.200000	5.200000
0.001614	0.000000	4.600000
0.001616	-0.800000	4.200000
0.001618	-1.600000	3.600000
0.001620	-2.400000	3.000000
0.001622	-3.600000	2.600000
0.001624	-4.800000	2.000000
0.001626	-5.600000	1.400000
0.001628	-6.400000	0.800000
0.001630	-7.200000	0.200000
0.001632	-8.000000	-0.400000
0.001634	-9.200000	-1.000000
0.001636	-10.000000	-1.600000
0.001638	-10.800000	-2.200000
0.001640	-12.000000	-2.800000
0.001642	-12.800000	-3.400000
0.001644	-14.000000	-4.000000
0.001646	-14.800000	-4.800000
0.001648	-15.600000	-5.400000
0.001650	-16.800000	-6.000000
0.001652	-17.600000	-6.600000
0.001654	-18.800000	-7.000000
0.001656	-19.600000	-7.800000
0.001658	-20.400000	-8.400000
0.001660	-21.600000	-8.800000
0.001662	-22.400000	-9.400000
0.001664	-23.600000	-10.000000
0.001666	-24.400000	-10.600000
0.001668	-25.200000	-11.000000
0.001670	-26.400000	-11.600000
0.001672	-27.200000	-12.000000
0.001674	-28.400000	-12.600000
0.001676	-29.200000	-13.000000
0.001678	-29.200000	-13.200000
0.001680	-27.600000	-13.200000
0.001682	-27.200000	-13.200000
0.001684	-26.000000	-13.200000
0.001686	-24.800000	-13.000000
0.001688	-24.400000	-13.000000
0.001690	-22.800000	-13.000000
0.001692	-22.800000	-12.800000
0.001694	-21.200000	-12.600000
0.001696	-20.400000	-12.600000
0.001698	-19.200000	-12.200000
0.001700	-18.400000	-12.000000
0.001702	-17.600000	-11.800000
0.001704	-16.800000	-11.600000
0.001706	-15.600000	-11.400000
0.001708	-14.800000	-11.200000
0.001710	-13.600000	-10.800000
0.001712	-12.800000	-10.400000
0.001714	-11.600000	-10.200000
0.001716	-10.800000	-9.800000
0.001718	-10.000000	-9.400000
0.001720	-8.800000	-9.000000
0.001722	-8.000000	-8.600000
0.001724	-7.200000	-8.200000
0.001726	-6.000000	-7.800000
0.001728	-5.200000	-7.200000
0.001730	-4.400000	-6.800000
0.001732	-3.200000	-6.400000
0.001734	-2.000000	-5.800000
0.001736	-1.200000	-5.400000
0.001738	-0.400000	-4.800000
0.001740	0.800000	-4.200000
0.001742	1.600000	-3.800000
0.001744	2.400000	-3.200000
0.001746	3.600000	-2.600000
0.001748	4.400000	-2.000000
0.001750	5.200000	-1.400000
0.001752	6.400000	-0.800000
0.001754	7.200000	-0.200000
0.001756	8.000000	0.400000
0.001758	9.200000	1.000000
0.001760	10.000000	1.600000
0.001762	10.800000	2.200000
0.001764	12.000000	2.800000
0.001766	12.800000	3.400000
0.001768	13.600000	4.000000
0.001770	14.800000	4.600000
0.001772	15.600000	5.200000
0.001774	16.800000	5.800000
0.001776	17.600000	6.400000
0.001778	18.400000	7.000000
0.001780	19.200000	7.600000
0.001782	20.400000	8.200000
0.001784	21.200000	8.600000
0.001786	22.400000	9.200000
0.001788	23.200000	9.800000
0.001790	24.000000	10.200000
0.001792	25.200000	10.800000
0.001794	26.000000	11.200000
0.001796	26.800000	11.800000
0.001798	28.000000	12.200000
0.001800	28.800000	12.600000
0.001802	29.200000	13.000000
0.001804	28.000000	13.000000
0.001806	27.200000	13.000000
0.001808	26.000000	13.000000
0.001810	25.200000	12.800000
0.001812	24.400000	12.800000
0.001814	23.200000	12.800000
0.001816	22.800000	12.600000
0.001818	21.200000	12.400000
0.001820	20.800000	12.400000
0.001822	19.200000	12.000000
0.001824	18.800000	12.000000
0.001826	17.600000	11.800000
0.001828	17.200000	11.600000
0.001830	15.600000	11.200000
0.001832	15.200000	11.000000
0.001834	13.600000	10.800000
0.001836	13.200000	10.400000
0.001838	12.000000	10.200000
0.001840	11.200000	9.800000
0.001842	10.000000	9.400000
0.001844	9.200000	9.200000
0.001846	8.400000	8.600000
0.001848	7.200000	8.200000
0.001850	6.400000	7.800000
0.001852	5.600000	7.400000
0.001854	4.400000	7.000000
0.001856	3.600000	6.600000
0.001858	2.800000	6.000000
0.001860	1.600000	5.400000
0.001862	0.800000	5.000000
0.001864	0.000000	4.400000
0.001866	-1.200000	4.000000
0.001868	-2.000000	3.400000
0.001870	-2.800000	3.000000
0.001872	-4.000000	2.400000
0.001874	-4.800000	1.800000
0.001876	-6.000000	1.200000
0.001878	-6.800000	0.600000
0.001880	-7.600000	0.000000
0.001882	-8.400000	-0.600000
0.001884	-9.200000	-1.200000
0.001886	-10.400000	-1.800000
0.001888	-11.200000	-2.400000
0.001890	-12.000000	-3.000000
0.001892	-13.200000	-3.600000
0.001894	-14.000000	-4.200000
0.001896	-14.800000	-4.800000
0.001898	-16.000000	-5.600000
0.001900	-16.800000	-6.200000
0.001902	-18.000000	-6.800000
0.001904	-18.800000	-7.200000
0.001906	-20.000000	-8.000000
0.001908	-20.800000	-8.400000
0.001910	-22.000000	-9.000000
0.001912	-22.800000	-9.600000
0.001914	-23.600000	-10.200000
0.001916	-24.800000	-10.800000
0.001918	-25.600000	-11.200000
0.001920	-26.400000	-11.800000
0.001922	-27.600000	-12.200000
0.001924	-28.400000	-12.600000
0.001926	-29.200000	-13.200000
0.001928	-28.800000	-13.200000
0.001930	-27.200000	-13.200000
0.001932	-26.800000	-13.200000
0.001934	-25.600000	-13.000000
0.001936	-24.800000	-13.000000
0.001938	-23.600000	-13.000000
0.001940	-22.800000	-13.000000
0.001942	-22.000000	-12.800000
0.001944	-20.800000	-12.600000
0.001946	-20.000000	-12.400000
0.001948	-18.800000	-12.200000
0.001950	-18.400000	-12.000000
0.001952	-17.200000	-11.800000
0.001954	-16.400000	-11.600000
0.001956	-15.200000	-11.200000
0.001958	-14.400000	-11.000000
0.001960	-13.200000	-10.600000
0.001962	-12.400000	-10.400000
0.001964	-11.200000	-10.000000
0.001966	-10.800000	-9.600000
0.001968	-9.600000	-9.200000
0.001970	-8.800000	-9.000000
0.001972	-7.600000	-8.400000
0.001974	-6.800000	-8.000000
0.001976	-6.000000	-7.600000
0.001978	-4.800000	-7.000000
0.001980	-4.000000	-6.600000
0.001982	-2.800000	-6.200000
0.001984	-2.000000	-5.600000
0.001986	-0.800000	-5.200000
0.001988	0.000000	-4.600000
0.001990	0.800000	-4.200000
0.001992	1.600000	-3.600000
0.001994	2.800000	-3.000000
0.001996	4.000000	-2.400000
0.001998	4.800000	-1.800000
0.002000	5.600000	-1.200000
0.002002	6.400000	-0.600000
0.002004	7.600000	0.000000
0.002006	8.400000	0.600000
0.002008	9.600000	1.200000
0.002010	10.400000	1.800000
0.002012	11.200000	2.400000
0.002014	12.400000	3.000000
0.002016	13.200000	3.600000
0.002018	14.000000	4.200000
0.002020	15.200000	4.800000
0.002022	16.000000	5.400000
0.002024	16.800000	6.000000
0.002026	18.000000	6.600000
0.002028	18.800000	7.200000
0.002030	19.600000	7.800000
0.002032	20.400000	8.200000
0.002034	21.600000	8.800000
0.002036	22.400000	9.400000
0.002038	23.600000	10.000000
0.002040	24.400000	10.400000
0.002042	25.200000	11.000000
0.002044	26.000000	11.400000
0.002046	27.200000	12.000000
0.002048	28.000000	12.400000
0.002050	28.800000	12.800000
0.002052	29.200000	13.000000
0.002054	27.600000	13.000000
0.002056	27.200000	13.000000
0.002058	25.600000	12.800000
0.002060	25.200000	13.000000
0.002062	24.000000	12.800000
0.002064	23.200000	12.800000
0.002066	22.400000	12.600000
0.002068	21.200000	12.400000
0.002070	20.400000	12.200000
0.002072	19.200000	12.000000
0.002074	18.400000	12.000000
0.002076	17.200000	11.600000
0.002078	16.800000	11.400000
0.002080	15.600000	11.200000
0.002082	14.800000	11.000000
0.002084	13.600000	10.600000
0.002086	12.800000	10.400000
0.002088	12.000000	10.000000
0.002090	10.800000	9.600000
0.002092	10.000000	9.400000
0.002094	9.200000	9.000000
0.002096	8.000000	8.600000
0.002098	7.200000	8.200000
0.002100	6.000000	7.600000
0.002102	5.200000	7.200000
0.002104	4.400000	6.800000
0.002106	3.200000	6.400000
0.002108	2.400000	5.800000
0.002110	1.200000	5.400000
0.002112	0.400000	4.800000
0.002114	-0.400000	4.400000
0.002116	-1.200000	3.800000
0.002118	-2.000000	3.200000
0.002120	-3.200000	2.800000
0.002122	-4.400000	2.200000
0.002124	-5.200000	1.600000
0.002126	-6.000000	1.000000
0.002128	-6.800000	0.400000
0.002130	-7.600000	-0.200000
0.002132	-8.800000	-0.800000
0.002134	-9.600000	-1.400000
0.002136	-10.400000	-2.000000
0.002138	-11.600000	-2.600000
0.002140	-12.400000	-3.200000
0.002142	-13.200000	-3.800000
0.002144	-14.400000	-4.400000
0.002146	-15.200000	-5.000000
0.002148	-16.400000	-5.800000
0.002150	-17.200000	-6.400000
0.002152	-18.400000	-6.800000
0.002154	-19.200000	-7.400000
0.002156	-20.000000	-8.000000
0.002158	-21.200000	-8.600000
0.002160	-22.400000	-9.200000
0.002162	-23.200000	-9.800000
0.002164	-24.000000	-10.400000
0.002166	-24.800000	-10.800000
0.002168	-26.000000	-11.400000
0.002170	-26.800000	-11.800000
0.002172	-28.000000	-12.400000
0.002174	-28.800000	-12.800000
0.002176	-29.200000	-13.200000
0.002178	-28.400000	-13.200000
0.002180	-27.200000	-13.200000
0.002182	-26.400000	-13.200000
0.002184	-25.200000	-13.000000
0.002186	-24.800000	-13.200000
0.002188	-23.200000	-13.000000
0.002190	-22.800000	-12.800000
0.002192	-21.600000	-12.600000
0.002194	-20.800000	-12.600000
0.002196	-19.600000	-12.400000
0.002198	-18.800000	-12.200000
0.002200	-18.000000	-12.000000
0.002202	-16.800000	-11.600000
0.002204	-16.000000	-11.400000
0.002206	-14.800000	-11.200000
0.002208	-14.000000	-11.000000
0.002210	-12.800000	-10.600000
0.002212	-12.400000	-10.200000
0.002214	-11.200000	-9.800000
0.002216	-10.400000	-9.400000
0.002218	-9.200000	-9.200000
0.002220	-8.400000	-8.800000
0.002222	-7.200000	-8.400000
0.002224	-6.400000	-8.000000
0.002226	-5.600000	-7.400000
0.002228	-4.800000	-7.000000
0.002230	-3.600000	-6.600000
0.002232	-2.400000	-6.000000
0.002234	-1.600000	-5.600000
0.002236	-0.800000	-5.000000
0.002238	0.400000	-4.400000
0.002240	1.200000	-4.000000
0.002242	2.000000	-3.400000
0.002244	3.200000	-2.800000
0.002246	4.000000	-2.200000
0.002248	5.200000	-1.600000
0.002250	6.000000	-1.000000
0.002252	6.800000	-0.400000
0.002254	7.600000	0.200000
0.002256	8.800000	0.800000
0.002258	9.600000	1.400000
0.002260	10.800000	2.000000
0.002262	11.600000	2.600000
0.002264	12.400000	3.200000
0.002266	13.600000	3.800000
0.002268	14.400000	4.400000
0.002270	15.200000	5.000000
0.002272	16.400000	5.600000
0.002274	17.200000	6.200000
0.002276	18.000000	6.800000
0.002278	18.800000	7.400000
0.002280	20.000000	8.000000
0.002282	20.800000	8.400000
0.002284	22.000000	9.000000
0.002286	22.800000	9.600000
0.002288	23.600000	10.000000
0.002290	24.800000	10.600000
0.002292	25.600000	11.200000
0.002294	26.400000	11.600000
0.002296	27.600000	12.000000
0.002298	28.400000	12.600000
0.002300	29.200000	13.000000
0.002302	28.800000	13.000000
0.002304	27.200000	13.000000
0.002306	26.800000	13.000000
0.002308	25.200000	12.800000
0.002310	25.200000	13.000000
0.002312	23.600000	12.800000
0.002314	23.200000	12.800000
0.002316	21.600000	12.400000
0.002318	21.200000	12.400000
0.002320	20.000000	12.200000
0.002322	19.200000	12.000000
0.002324	18.000000	11.800000
0.002326	17.200000	11.600000
0.002328	16.400000	11.400000
0.002330	15.200000	11.200000
0.002332	14.400000	10.800000
0.002334	13.600000	10.600000
0.002336	12.400000	10.200000
0.002338	11.600000	10.000000
0.002340	10.400000	9.600000
0.002342	9.600000	9.200000
0.002344	8.800000	8.800000
0.002346	7.600000	8.400000
0.002348	6.800000	8.000000
0.002350	5.600000	7.600000
0.002352	4.800000	7.200000
0.002354	4.000000	6.800000
0.002356	3.200000	6.200000
0.002358	2.000000	5.600000
0.002360	1.200000	5.200000
0.002362	0.400000	4.800000
0.002364	-0.800000	4.200000
0.002366	-1.600000	3.600000
0.002368	-2.400000	3.000000
0.002370	-3.600000	2.600000
0.002372	-4.400000	2.000000
0.002374	-5.600000	1.400000
0.002376	-6.400000	0.800000
0.002378	-7.200000	0.200000
0.002380	-8.000000	-0.400000
0.002382	-8.800000	-1.000000
0.002384	-10.000000	-1.600000
0.002386	-10.800000	-2.200000
0.002388	-11.600000	-2.800000
0.002390	-12.800000	-3.400000
0.002392	-13.600000	-4.000000
0.002394	-14.800000	-4.600000
0.002396	-15.600000	-5.400000
0.002398	-16.800000	-6.000000
0.002400	-17.600000	-6.400000
0.002402	-18.400000	-7.000000
0.002404	-19.600000	-7.600000
0.002406	-20.400000	-8.200000
0.002408	-21.600000	-8.800000
0.002410	-22.400000	-9.400000
0.002412	-23.200000	-10.000000
0.002414	-24.400000	-10.600000
0.002416	-25.200000	-11.000000
0.002418	-26.400000	-11.600000
0.002420	-27.200000	-12.000000
0.002422	-28.000000	-12.600000
0.002424	-29.200000	-13.000000
0.002426	-29.200000	-13.200000
0.002428	-28.000000	-13.200000
0.002430	-26.800000	-13.200000
0.002432	-26.000000	-13.200000
0.002434	-24.800000	-13.000000
0.002436	-24.400000	-13.000000
0.002438	-22.800000	-13.000000
0.002440	-22.800000	-12.800000
0.002442	-21.200000	-12.600000
0.002444	-20.400000	-12.400000
0.002446	-19.200000	-12.200000
0.002448	-18.800000	-12.200000
0.002450	-17.600000	-11.800000
0.002452	-16.800000	-11.600000
0.002454	-15.600000	-11.400000
0.002456	-14.800000	-11.200000
0.002458	-13.600000	-10.800000
0.002460	-12.800000	-10.600000
0.002462	-12.000000	-10.200000
0.002464	-10.800000	-9.800000
0.002466	-10.000000	-9.400000
0.002468	-8.800000	-9.000000
0.002470	-8.000000	-8.600000
0.002472	-7.200000	-8.200000
0.002474	-6.000000	-7.800000
0.002476	-5.200000	-7.200000
0.002478	-4.400000	-6.800000
0.002480	-3.200000	-6.400000
0.002482	-2.400000	-6.000000
0.002484	-1.200000	-5.400000
0.002486	-0.400000	-4.800000
0.002488	0.400000	-4.400000
0.002490	1.600000	-3.800000
0.002492	2.400000	-3.200000
0.002494	3.600000	-2.600000
0.002496	4.400000	-2.000000
0.002498	5.200000	-1.400000

