LabVIEW Measurement	
Writer_Version	2
Reader_Version	2
Separator	Tab
Decimal_Separator	.
Multi_Headings	Yes
X_Columns	One
Time_Pref	Relative
Operator	e014
Description	Hysteresis Loop Data
Date	2015/07/23
Time	11:09:31.3538365364074707031
***End_of_Header***	
	
Channels	2		
Samples	2500	2500	
Date	2015/07/23	2015/07/23	
Time	11:09:31.3538365364074707031	11:09:31.3538365364074707031	
X_Dimension	Time	Time	
X0	-2.5000000000000001E-3	-2.5000000000000001E-3	
Delta_X	2.000000E-6	2.000000E-6	
***End_of_Header***			
X_Value	Untitled	Untitled 1	Comment
-0.002500	-16.000000	-0.400000
-0.002498	-16.400000	-0.400000
-0.002496	-16.800000	-0.408000
-0.002494	-16.800000	-0.416000
-0.002492	-17.200000	-0.424000
-0.002490	-17.200000	-0.424000
-0.002488	-17.600000	-0.432000
-0.002486	-18.000000	-0.440000
-0.002484	-18.000000	-0.448000
-0.002482	-18.400000	-0.456000
-0.002480	-18.400000	-0.456000
-0.002478	-18.800000	-0.464000
-0.002476	-18.800000	-0.472000
-0.002474	-19.200000	-0.480000
-0.002472	-19.600000	-0.480000
-0.002470	-19.600000	-0.488000
-0.002468	-20.000000	-0.496000
-0.002466	-20.000000	-0.504000
-0.002464	-20.400000	-0.504000
-0.002462	-20.400000	-0.512000
-0.002460	-20.800000	-0.520000
-0.002458	-21.200000	-0.528000
-0.002456	-21.200000	-0.536000
-0.002454	-21.600000	-0.536000
-0.002452	-22.000000	-0.544000
-0.002450	-22.000000	-0.552000
-0.002448	-22.400000	-0.560000
-0.002446	-22.400000	-0.560000
-0.002444	-22.800000	-0.568000
-0.002442	-22.800000	-0.576000
-0.002440	-23.200000	-0.584000
-0.002438	-23.600000	-0.584000
-0.002436	-23.600000	-0.592000
-0.002434	-24.000000	-0.600000
-0.002432	-24.000000	-0.608000
-0.002430	-24.400000	-0.616000
-0.002428	-24.800000	-0.616000
-0.002426	-24.800000	-0.624000
-0.002424	-25.200000	-0.632000
-0.002422	-25.200000	-0.632000
-0.002420	-25.600000	-0.640000
-0.002418	-26.000000	-0.648000
-0.002416	-26.000000	-0.656000
-0.002414	-26.400000	-0.656000
-0.002412	-26.400000	-0.664000
-0.002410	-26.800000	-0.672000
-0.002408	-26.800000	-0.672000
-0.002406	-27.200000	-0.680000
-0.002404	-27.600000	-0.688000
-0.002402	-27.600000	-0.688000
-0.002400	-28.000000	-0.696000
-0.002398	-28.400000	-0.704000
-0.002396	-28.400000	-0.704000
-0.002394	-28.800000	-0.712000
-0.002392	-28.800000	-0.720000
-0.002390	-29.200000	-0.720000
-0.002388	-29.200000	-0.728000
-0.002386	-29.200000	-0.728000
-0.002384	-29.200000	-0.728000
-0.002382	-29.600000	-0.728000
-0.002380	-29.200000	-0.728000
-0.002378	-29.200000	-0.720000
-0.002376	-28.400000	-0.712000
-0.002374	-28.400000	-0.712000
-0.002372	-28.400000	-0.712000
-0.002370	-28.400000	-0.704000
-0.002368	-27.600000	-0.696000
-0.002366	-27.200000	-0.696000
-0.002364	-27.200000	-0.696000
-0.002362	-27.200000	-0.688000
-0.002360	-27.200000	-0.688000
-0.002358	-26.400000	-0.680000
-0.002356	-26.000000	-0.672000
-0.002354	-26.000000	-0.672000
-0.002352	-26.000000	-0.672000
-0.002350	-26.000000	-0.664000
-0.002348	-25.200000	-0.656000
-0.002346	-24.800000	-0.648000
-0.002344	-24.800000	-0.648000
-0.002342	-24.800000	-0.648000
-0.002340	-24.800000	-0.640000
-0.002338	-24.000000	-0.632000
-0.002336	-23.600000	-0.624000
-0.002334	-23.200000	-0.624000
-0.002332	-23.600000	-0.624000
-0.002330	-23.600000	-0.616000
-0.002328	-22.800000	-0.608000
-0.002326	-22.400000	-0.600000
-0.002324	-22.400000	-0.600000
-0.002322	-22.400000	-0.600000
-0.002320	-22.400000	-0.592000
-0.002318	-22.000000	-0.584000
-0.002316	-21.200000	-0.576000
-0.002314	-20.800000	-0.576000
-0.002312	-20.800000	-0.576000
-0.002310	-20.800000	-0.568000
-0.002308	-20.800000	-0.560000
-0.002306	-20.000000	-0.552000
-0.002304	-19.600000	-0.544000
-0.002302	-19.600000	-0.544000
-0.002300	-19.600000	-0.544000
-0.002298	-19.600000	-0.536000
-0.002296	-19.200000	-0.528000
-0.002294	-18.400000	-0.520000
-0.002292	-18.400000	-0.520000
-0.002290	-18.400000	-0.520000
-0.002288	-18.400000	-0.512000
-0.002286	-18.000000	-0.504000
-0.002284	-17.600000	-0.496000
-0.002282	-17.200000	-0.488000
-0.002280	-17.200000	-0.488000
-0.002278	-17.200000	-0.480000
-0.002276	-16.800000	-0.480000
-0.002274	-16.400000	-0.472000
-0.002272	-16.000000	-0.464000
-0.002270	-16.000000	-0.464000
-0.002268	-16.000000	-0.456000
-0.002266	-15.600000	-0.456000
-0.002264	-15.200000	-0.440000
-0.002262	-14.800000	-0.432000
-0.002260	-14.400000	-0.432000
-0.002258	-14.400000	-0.432000
-0.002256	-14.400000	-0.424000
-0.002254	-14.000000	-0.416000
-0.002252	-13.600000	-0.408000
-0.002250	-13.200000	-0.400000
-0.002248	-13.600000	-0.400000
-0.002246	-13.200000	-0.392000
-0.002244	-12.800000	-0.392000
-0.002242	-12.400000	-0.376000
-0.002240	-12.000000	-0.376000
-0.002238	-12.000000	-0.368000
-0.002236	-12.000000	-0.368000
-0.002234	-12.000000	-0.360000
-0.002232	-11.600000	-0.352000
-0.002230	-11.200000	-0.344000
-0.002228	-10.800000	-0.344000
-0.002226	-10.800000	-0.336000
-0.002224	-10.800000	-0.328000
-0.002222	-10.400000	-0.320000
-0.002220	-10.000000	-0.312000
-0.002218	-9.600000	-0.312000
-0.002216	-9.600000	-0.304000
-0.002214	-9.600000	-0.304000
-0.002212	-9.200000	-0.296000
-0.002210	-8.800000	-0.288000
-0.002208	-8.400000	-0.280000
-0.002206	-8.000000	-0.280000
-0.002204	-8.400000	-0.272000
-0.002202	-8.000000	-0.264000
-0.002200	-7.600000	-0.256000
-0.002198	-7.200000	-0.248000
-0.002196	-6.800000	-0.240000
-0.002194	-6.800000	-0.240000
-0.002192	-6.800000	-0.232000
-0.002190	-6.400000	-0.224000
-0.002188	-6.000000	-0.216000
-0.002186	-5.600000	-0.208000
-0.002184	-5.600000	-0.208000
-0.002182	-5.600000	-0.200000
-0.002180	-5.600000	-0.200000
-0.002178	-5.200000	-0.184000
-0.002176	-4.800000	-0.176000
-0.002174	-4.400000	-0.176000
-0.002172	-4.400000	-0.168000
-0.002170	-4.400000	-0.160000
-0.002168	-4.000000	-0.160000
-0.002166	-3.600000	-0.144000
-0.002164	-3.200000	-0.136000
-0.002162	-2.800000	-0.136000
-0.002160	-2.800000	-0.136000
-0.002158	-2.800000	-0.128000
-0.002156	-2.400000	-0.120000
-0.002154	-2.000000	-0.112000
-0.002152	-1.600000	-0.104000
-0.002150	-1.600000	-0.096000
-0.002148	-1.600000	-0.096000
-0.002146	-1.200000	-0.088000
-0.002144	-0.800000	-0.080000
-0.002142	-0.400000	-0.072000
-0.002140	0.000000	-0.064000
-0.002138	0.000000	-0.064000
-0.002136	0.000000	-0.056000
-0.002134	0.400000	-0.048000
-0.002132	0.800000	-0.032000
-0.002130	0.800000	-0.032000
-0.002128	0.800000	-0.032000
-0.002126	1.200000	-0.016000
-0.002124	1.200000	-0.016000
-0.002122	1.600000	0.000000
-0.002120	2.000000	0.008000
-0.002118	2.400000	0.008000
-0.002116	2.400000	0.016000
-0.002114	2.400000	0.024000
-0.002112	2.800000	0.024000
-0.002110	3.200000	0.040000
-0.002108	3.600000	0.040000
-0.002106	3.600000	0.048000
-0.002104	3.600000	0.048000
-0.002102	4.000000	0.056000
-0.002100	4.400000	0.072000
-0.002098	4.800000	0.080000
-0.002096	5.200000	0.080000
-0.002094	5.200000	0.088000
-0.002092	5.200000	0.096000
-0.002090	5.600000	0.096000
-0.002088	6.000000	0.112000
-0.002086	6.000000	0.120000
-0.002084	6.400000	0.120000
-0.002082	6.400000	0.120000
-0.002080	6.800000	0.128000
-0.002078	7.200000	0.144000
-0.002076	7.200000	0.152000
-0.002074	7.600000	0.152000
-0.002072	7.600000	0.160000
-0.002070	7.600000	0.168000
-0.002068	8.000000	0.168000
-0.002066	8.400000	0.184000
-0.002064	8.800000	0.192000
-0.002062	9.200000	0.192000
-0.002060	9.200000	0.200000
-0.002058	9.200000	0.200000
-0.002056	9.600000	0.208000
-0.002054	10.000000	0.224000
-0.002052	10.400000	0.232000
-0.002050	10.400000	0.232000
-0.002048	10.400000	0.240000
-0.002046	10.800000	0.248000
-0.002044	11.200000	0.256000
-0.002042	11.600000	0.264000
-0.002040	11.600000	0.264000
-0.002038	11.600000	0.272000
-0.002036	12.000000	0.280000
-0.002034	12.400000	0.288000
-0.002032	12.800000	0.296000
-0.002030	12.800000	0.296000
-0.002028	12.800000	0.304000
-0.002026	12.800000	0.312000
-0.002024	13.200000	0.320000
-0.002022	13.600000	0.328000
-0.002020	14.000000	0.336000
-0.002018	14.000000	0.336000
-0.002016	14.000000	0.344000
-0.002014	14.400000	0.344000
-0.002012	14.800000	0.352000
-0.002010	15.200000	0.368000
-0.002008	15.600000	0.368000
-0.002006	15.600000	0.368000
-0.002004	15.600000	0.376000
-0.002002	16.000000	0.384000
-0.002000	16.400000	0.400000
-0.001998	16.800000	0.400000
-0.001996	16.800000	0.408000
-0.001994	16.800000	0.416000
-0.001992	17.200000	0.416000
-0.001990	17.600000	0.424000
-0.001988	18.000000	0.440000
-0.001986	18.000000	0.440000
-0.001984	18.000000	0.440000
-0.001982	18.000000	0.448000
-0.001980	18.400000	0.456000
-0.001978	18.800000	0.464000
-0.001976	19.200000	0.472000
-0.001974	19.200000	0.472000
-0.001972	19.200000	0.480000
-0.001970	19.600000	0.488000
-0.001968	20.000000	0.496000
-0.001966	20.400000	0.504000
-0.001964	20.400000	0.504000
-0.001962	20.400000	0.512000
-0.001960	20.800000	0.520000
-0.001958	21.200000	0.528000
-0.001956	21.600000	0.536000
-0.001954	22.000000	0.536000
-0.001952	22.000000	0.536000
-0.001950	22.000000	0.544000
-0.001948	22.400000	0.552000
-0.001946	22.800000	0.568000
-0.001944	23.200000	0.568000
-0.001942	23.200000	0.576000
-0.001940	23.200000	0.576000
-0.001938	23.600000	0.584000
-0.001936	24.000000	0.592000
-0.001934	24.400000	0.600000
-0.001932	24.400000	0.600000
-0.001930	24.400000	0.600000
-0.001928	24.400000	0.608000
-0.001926	24.800000	0.616000
-0.001924	25.200000	0.624000
-0.001922	25.600000	0.632000
-0.001920	25.600000	0.640000
-0.001918	25.600000	0.640000
-0.001916	26.000000	0.648000
-0.001914	26.400000	0.656000
-0.001912	26.800000	0.664000
-0.001910	26.800000	0.664000
-0.001908	26.800000	0.672000
-0.001906	27.200000	0.680000
-0.001904	27.600000	0.680000
-0.001902	28.000000	0.688000
-0.001900	28.000000	0.696000
-0.001898	28.400000	0.704000
-0.001896	28.400000	0.704000
-0.001894	28.800000	0.712000
-0.001892	28.800000	0.712000
-0.001890	29.200000	0.720000
-0.001888	29.200000	0.728000
-0.001886	29.600000	0.736000
-0.001884	29.600000	0.736000
-0.001882	29.600000	0.736000
-0.001880	29.200000	0.728000
-0.001878	29.200000	0.728000
-0.001876	28.800000	0.720000
-0.001874	28.400000	0.712000
-0.001872	28.400000	0.704000
-0.001870	28.000000	0.704000
-0.001868	28.000000	0.704000
-0.001866	27.600000	0.704000
-0.001864	27.200000	0.688000
-0.001862	27.200000	0.688000
-0.001860	26.800000	0.680000
-0.001858	26.400000	0.680000
-0.001856	26.000000	0.672000
-0.001854	26.000000	0.672000
-0.001852	26.000000	0.664000
-0.001850	25.600000	0.664000
-0.001848	25.200000	0.656000
-0.001846	25.200000	0.648000
-0.001844	24.800000	0.648000
-0.001842	24.800000	0.640000
-0.001840	24.400000	0.640000
-0.001838	24.000000	0.624000
-0.001836	24.000000	0.624000
-0.001834	23.600000	0.624000
-0.001832	23.600000	0.608000
-0.001830	23.200000	0.616000
-0.001828	22.800000	0.608000
-0.001826	22.800000	0.600000
-0.001824	22.400000	0.592000
-0.001822	22.400000	0.600000
-0.001820	22.000000	0.584000
-0.001818	22.000000	0.576000
-0.001816	21.600000	0.576000
-0.001814	21.200000	0.576000
-0.001812	21.200000	0.568000
-0.001810	20.800000	0.592000
-0.001808	20.400000	0.552000
-0.001806	20.400000	0.544000
-0.001804	20.000000	0.544000
-0.001802	20.000000	0.544000
-0.001800	19.600000	0.536000
-0.001798	19.200000	0.536000
-0.001796	19.200000	0.528000
-0.001794	18.800000	0.520000
-0.001792	18.800000	0.504000
-0.001790	18.400000	0.496000
-0.001788	18.000000	0.504000
-0.001786	18.000000	0.496000
-0.001784	17.600000	0.504000
-0.001782	17.600000	0.504000
-0.001780	17.200000	0.496000
-0.001778	17.200000	0.464000
-0.001776	16.800000	0.464000
-0.001774	16.800000	0.472000
-0.001772	16.400000	0.472000
-0.001770	16.000000	0.448000
-0.001768	16.000000	0.440000
-0.001766	15.600000	0.448000
-0.001764	15.200000	0.440000
-0.001762	15.200000	0.424000
-0.001760	14.800000	0.424000
-0.001758	14.800000	0.432000
-0.001756	14.400000	0.416000
-0.001754	14.000000	0.416000
-0.001752	14.000000	0.400000
-0.001750	13.600000	0.416000
-0.001748	13.600000	0.392000
-0.001746	13.200000	0.392000
-0.001744	12.800000	0.400000
-0.001742	12.800000	0.368000
-0.001740	12.400000	0.392000
-0.001738	12.400000	0.360000
-0.001736	12.000000	0.368000
-0.001734	12.000000	0.360000
-0.001732	11.600000	0.360000
-0.001730	11.200000	0.352000
-0.001728	11.200000	0.344000
-0.001726	10.800000	0.328000
-0.001724	10.400000	0.328000
-0.001722	10.400000	0.320000
-0.001720	10.000000	0.328000
-0.001718	10.000000	0.304000
-0.001716	9.600000	0.312000
-0.001714	9.600000	0.304000
-0.001712	9.200000	0.296000
-0.001710	9.200000	0.280000
-0.001708	8.800000	0.280000
-0.001706	8.400000	0.272000
-0.001704	8.400000	0.264000
-0.001702	8.000000	0.256000
-0.001700	7.600000	0.264000
-0.001698	7.600000	0.240000
-0.001696	7.200000	0.248000
-0.001694	7.200000	0.232000
-0.001692	6.800000	0.232000
-0.001690	6.400000	0.224000
-0.001688	6.400000	0.216000
-0.001686	6.000000	0.200000
-0.001684	6.000000	0.216000
-0.001682	5.600000	0.192000
-0.001680	5.200000	0.200000
-0.001678	5.200000	0.176000
-0.001676	4.800000	0.184000
-0.001674	4.800000	0.176000
-0.001672	4.400000	0.168000
-0.001670	4.400000	0.152000
-0.001668	4.000000	0.160000
-0.001666	4.000000	0.144000
-0.001664	3.600000	0.152000
-0.001662	3.200000	0.120000
-0.001660	3.200000	0.136000
-0.001658	2.800000	0.120000
-0.001656	2.400000	0.128000
-0.001654	2.400000	0.104000
-0.001652	2.000000	0.104000
-0.001650	1.600000	0.088000
-0.001648	1.600000	0.096000
-0.001646	1.200000	0.080000
-0.001644	1.200000	0.088000
-0.001642	0.800000	0.064000
-0.001640	0.800000	0.080000
-0.001638	0.400000	0.048000
-0.001636	0.000000	0.064000
-0.001634	0.000000	0.040000
-0.001632	-0.400000	0.040000
-0.001630	-0.400000	0.032000
-0.001628	-0.800000	0.024000
-0.001626	-0.800000	0.024000
-0.001624	-1.200000	0.016000
-0.001622	-1.600000	0.000000
-0.001620	-1.600000	0.000000
-0.001618	-2.000000	0.000000
-0.001616	-2.000000	-0.016000
-0.001614	-2.400000	-0.008000
-0.001612	-2.400000	-0.032000
-0.001610	-2.800000	-0.040000
-0.001608	-3.200000	-0.040000
-0.001606	-3.600000	-0.056000
-0.001604	-3.600000	-0.064000
-0.001602	-4.000000	-0.072000
-0.001600	-4.400000	-0.072000
-0.001598	-4.400000	-0.080000
-0.001596	-4.800000	-0.080000
-0.001594	-4.800000	-0.096000
-0.001592	-5.200000	-0.096000
-0.001590	-5.600000	-0.096000
-0.001588	-5.600000	-0.112000
-0.001586	-6.000000	-0.120000
-0.001584	-6.000000	-0.120000
-0.001582	-6.400000	-0.128000
-0.001580	-6.400000	-0.136000
-0.001578	-6.800000	-0.136000
-0.001576	-6.800000	-0.144000
-0.001574	-7.200000	-0.160000
-0.001572	-7.600000	-0.152000
-0.001570	-7.600000	-0.168000
-0.001568	-8.000000	-0.168000
-0.001566	-8.400000	-0.184000
-0.001564	-8.400000	-0.176000
-0.001562	-8.800000	-0.192000
-0.001560	-8.800000	-0.192000
-0.001558	-9.200000	-0.208000
-0.001556	-9.600000	-0.216000
-0.001554	-9.600000	-0.224000
-0.001552	-10.000000	-0.224000
-0.001550	-10.400000	-0.232000
-0.001548	-10.400000	-0.240000
-0.001546	-10.800000	-0.248000
-0.001544	-10.800000	-0.256000
-0.001542	-11.200000	-0.256000
-0.001540	-11.200000	-0.264000
-0.001538	-11.600000	-0.272000
-0.001536	-12.000000	-0.280000
-0.001534	-12.000000	-0.288000
-0.001532	-12.400000	-0.296000
-0.001530	-12.400000	-0.296000
-0.001528	-12.800000	-0.304000
-0.001526	-13.200000	-0.312000
-0.001524	-13.200000	-0.320000
-0.001522	-13.600000	-0.320000
-0.001520	-13.600000	-0.328000
-0.001518	-14.000000	-0.336000
-0.001516	-14.400000	-0.344000
-0.001514	-14.400000	-0.352000
-0.001512	-14.800000	-0.360000
-0.001510	-14.800000	-0.368000
-0.001508	-15.200000	-0.368000
-0.001506	-15.200000	-0.376000
-0.001504	-15.600000	-0.384000
-0.001502	-16.000000	-0.392000
-0.001500	-16.000000	-0.400000
-0.001498	-16.400000	-0.400000
-0.001496	-16.800000	-0.408000
-0.001494	-16.800000	-0.416000
-0.001492	-17.200000	-0.424000
-0.001490	-17.200000	-0.424000
-0.001488	-17.600000	-0.432000
-0.001486	-18.000000	-0.440000
-0.001484	-18.000000	-0.448000
-0.001482	-18.400000	-0.456000
-0.001480	-18.400000	-0.456000
-0.001478	-18.800000	-0.464000
-0.001476	-18.800000	-0.472000
-0.001474	-19.200000	-0.480000
-0.001472	-19.600000	-0.480000
-0.001470	-19.600000	-0.488000
-0.001468	-20.000000	-0.496000
-0.001466	-20.000000	-0.504000
-0.001464	-20.400000	-0.504000
-0.001462	-20.400000	-0.512000
-0.001460	-20.800000	-0.520000
-0.001458	-21.200000	-0.528000
-0.001456	-21.200000	-0.536000
-0.001454	-21.600000	-0.536000
-0.001452	-22.000000	-0.544000
-0.001450	-22.000000	-0.552000
-0.001448	-22.400000	-0.560000
-0.001446	-22.400000	-0.560000
-0.001444	-22.800000	-0.568000
-0.001442	-22.800000	-0.576000
-0.001440	-23.200000	-0.584000
-0.001438	-23.600000	-0.584000
-0.001436	-23.600000	-0.592000
-0.001434	-24.000000	-0.600000
-0.001432	-24.000000	-0.608000
-0.001430	-24.400000	-0.608000
-0.001428	-24.800000	-0.616000
-0.001426	-24.800000	-0.624000
-0.001424	-25.200000	-0.632000
-0.001422	-25.200000	-0.632000
-0.001420	-25.600000	-0.640000
-0.001418	-26.000000	-0.648000
-0.001416	-26.000000	-0.656000
-0.001414	-26.400000	-0.656000
-0.001412	-26.400000	-0.664000
-0.001410	-26.800000	-0.672000
-0.001408	-26.800000	-0.672000
-0.001406	-27.200000	-0.680000
-0.001404	-27.600000	-0.688000
-0.001402	-28.000000	-0.688000
-0.001400	-28.000000	-0.696000
-0.001398	-28.400000	-0.704000
-0.001396	-28.400000	-0.704000
-0.001394	-28.800000	-0.712000
-0.001392	-28.800000	-0.720000
-0.001390	-29.200000	-0.720000
-0.001388	-29.200000	-0.728000
-0.001386	-29.200000	-0.728000
-0.001384	-29.200000	-0.728000
-0.001382	-29.600000	-0.728000
-0.001380	-29.200000	-0.728000
-0.001378	-29.200000	-0.720000
-0.001376	-28.400000	-0.712000
-0.001374	-28.400000	-0.712000
-0.001372	-28.400000	-0.712000
-0.001370	-28.400000	-0.704000
-0.001368	-27.600000	-0.696000
-0.001366	-27.200000	-0.696000
-0.001364	-27.200000	-0.696000
-0.001362	-27.200000	-0.688000
-0.001360	-26.800000	-0.688000
-0.001358	-26.400000	-0.680000
-0.001356	-26.000000	-0.672000
-0.001354	-26.000000	-0.672000
-0.001352	-26.000000	-0.672000
-0.001350	-26.000000	-0.664000
-0.001348	-25.200000	-0.656000
-0.001346	-24.800000	-0.648000
-0.001344	-24.800000	-0.648000
-0.001342	-24.800000	-0.648000
-0.001340	-24.800000	-0.640000
-0.001338	-24.000000	-0.632000
-0.001336	-23.600000	-0.624000
-0.001334	-23.600000	-0.624000
-0.001332	-23.600000	-0.624000
-0.001330	-23.600000	-0.616000
-0.001328	-22.800000	-0.608000
-0.001326	-22.400000	-0.600000
-0.001324	-22.400000	-0.600000
-0.001322	-22.400000	-0.600000
-0.001320	-22.400000	-0.592000
-0.001318	-22.000000	-0.584000
-0.001316	-21.200000	-0.576000
-0.001314	-20.800000	-0.576000
-0.001312	-20.800000	-0.568000
-0.001310	-20.800000	-0.568000
-0.001308	-20.800000	-0.560000
-0.001306	-20.000000	-0.552000
-0.001304	-19.600000	-0.544000
-0.001302	-19.600000	-0.544000
-0.001300	-19.600000	-0.544000
-0.001298	-19.600000	-0.536000
-0.001296	-18.800000	-0.528000
-0.001294	-18.400000	-0.520000
-0.001292	-18.400000	-0.520000
-0.001290	-18.400000	-0.520000
-0.001288	-18.400000	-0.512000
-0.001286	-18.000000	-0.504000
-0.001284	-17.600000	-0.496000
-0.001282	-17.200000	-0.488000
-0.001280	-17.200000	-0.488000
-0.001278	-17.200000	-0.488000
-0.001276	-16.800000	-0.480000
-0.001274	-16.400000	-0.464000
-0.001272	-16.000000	-0.464000
-0.001270	-16.000000	-0.464000
-0.001268	-16.000000	-0.456000
-0.001266	-15.600000	-0.448000
-0.001264	-15.200000	-0.440000
-0.001262	-14.800000	-0.432000
-0.001260	-14.400000	-0.432000
-0.001258	-14.800000	-0.432000
-0.001256	-14.400000	-0.424000
-0.001254	-14.000000	-0.416000
-0.001252	-13.600000	-0.408000
-0.001250	-13.200000	-0.400000
-0.001248	-13.600000	-0.400000
-0.001246	-13.200000	-0.392000
-0.001244	-12.800000	-0.392000
-0.001242	-12.400000	-0.376000
-0.001240	-12.000000	-0.376000
-0.001238	-12.000000	-0.368000
-0.001236	-12.000000	-0.368000
-0.001234	-12.000000	-0.360000
-0.001232	-11.600000	-0.352000
-0.001230	-10.800000	-0.344000
-0.001228	-10.800000	-0.344000
-0.001226	-10.800000	-0.336000
-0.001224	-10.800000	-0.328000
-0.001222	-10.400000	-0.320000
-0.001220	-10.000000	-0.312000
-0.001218	-9.600000	-0.312000
-0.001216	-9.600000	-0.304000
-0.001214	-9.600000	-0.304000
-0.001212	-9.200000	-0.296000
-0.001210	-8.800000	-0.288000
-0.001208	-8.400000	-0.280000
-0.001206	-8.000000	-0.280000
-0.001204	-8.400000	-0.272000
-0.001202	-8.000000	-0.264000
-0.001200	-7.600000	-0.256000
-0.001198	-7.200000	-0.248000
-0.001196	-6.800000	-0.240000
-0.001194	-6.800000	-0.240000
-0.001192	-6.800000	-0.232000
-0.001190	-6.400000	-0.224000
-0.001188	-6.000000	-0.216000
-0.001186	-5.600000	-0.208000
-0.001184	-5.600000	-0.208000
-0.001182	-5.600000	-0.200000
-0.001180	-5.600000	-0.200000
-0.001178	-5.200000	-0.184000
-0.001176	-4.800000	-0.176000
-0.001174	-4.400000	-0.176000
-0.001172	-4.400000	-0.168000
-0.001170	-4.400000	-0.160000
-0.001168	-4.000000	-0.160000
-0.001166	-3.600000	-0.144000
-0.001164	-3.200000	-0.136000
-0.001162	-2.800000	-0.136000
-0.001160	-2.800000	-0.128000
-0.001158	-2.800000	-0.128000
-0.001156	-2.400000	-0.120000
-0.001154	-2.000000	-0.112000
-0.001152	-1.600000	-0.104000
-0.001150	-1.600000	-0.096000
-0.001148	-1.600000	-0.096000
-0.001146	-1.200000	-0.088000
-0.001144	-0.800000	-0.080000
-0.001142	-0.400000	-0.064000
-0.001140	0.000000	-0.064000
-0.001138	0.000000	-0.064000
-0.001136	0.000000	-0.056000
-0.001134	0.400000	-0.048000
-0.001132	0.800000	-0.032000
-0.001130	0.800000	-0.032000
-0.001128	0.800000	-0.032000
-0.001126	1.200000	-0.016000
-0.001124	1.200000	-0.016000
-0.001122	1.600000	0.000000
-0.001120	2.000000	0.008000
-0.001118	2.400000	0.008000
-0.001116	2.400000	0.016000
-0.001114	2.400000	0.024000
-0.001112	2.800000	0.032000
-0.001110	3.200000	0.040000
-0.001108	3.600000	0.040000
-0.001106	3.600000	0.048000
-0.001104	3.600000	0.048000
-0.001102	4.000000	0.056000
-0.001100	4.400000	0.072000
-0.001098	4.800000	0.080000
-0.001096	5.200000	0.080000
-0.001094	5.200000	0.088000
-0.001092	5.200000	0.096000
-0.001090	5.600000	0.104000
-0.001088	6.000000	0.112000
-0.001086	6.400000	0.120000
-0.001084	6.400000	0.120000
-0.001082	6.400000	0.120000
-0.001080	6.800000	0.128000
-0.001078	6.800000	0.144000
-0.001076	7.200000	0.152000
-0.001074	7.600000	0.152000
-0.001072	7.600000	0.160000
-0.001070	7.600000	0.168000
-0.001068	8.000000	0.176000
-0.001066	8.400000	0.184000
-0.001064	8.800000	0.192000
-0.001062	8.800000	0.192000
-0.001060	9.200000	0.200000
-0.001058	9.200000	0.200000
-0.001056	9.600000	0.216000
-0.001054	10.000000	0.224000
-0.001052	10.400000	0.224000
-0.001050	10.400000	0.232000
-0.001048	10.400000	0.240000
-0.001046	10.800000	0.248000
-0.001044	11.200000	0.256000
-0.001042	11.600000	0.264000
-0.001040	11.600000	0.264000
-0.001038	11.600000	0.272000
-0.001036	12.000000	0.280000
-0.001034	12.400000	0.288000
-0.001032	12.800000	0.296000
-0.001030	12.800000	0.296000
-0.001028	12.800000	0.304000
-0.001026	12.800000	0.312000
-0.001024	13.200000	0.320000
-0.001022	13.600000	0.328000
-0.001020	14.000000	0.336000
-0.001018	14.000000	0.336000
-0.001016	14.000000	0.344000
-0.001014	14.400000	0.344000
-0.001012	14.800000	0.360000
-0.001010	15.200000	0.368000
-0.001008	15.600000	0.368000
-0.001006	15.600000	0.368000
-0.001004	15.600000	0.376000
-0.001002	16.000000	0.384000
-0.001000	16.400000	0.400000
-0.000998	16.800000	0.400000
-0.000996	16.800000	0.408000
-0.000994	16.800000	0.408000
-0.000992	17.200000	0.416000
-0.000990	17.600000	0.424000
-0.000988	17.600000	0.440000
-0.000986	18.000000	0.440000
-0.000984	18.000000	0.440000
-0.000982	18.000000	0.448000
-0.000980	18.400000	0.456000
-0.000978	18.800000	0.464000
-0.000976	19.200000	0.472000
-0.000974	19.200000	0.472000
-0.000972	19.200000	0.480000
-0.000970	19.600000	0.488000
-0.000968	20.000000	0.496000
-0.000966	20.400000	0.504000
-0.000964	20.400000	0.504000
-0.000962	20.400000	0.512000
-0.000960	20.800000	0.520000
-0.000958	21.200000	0.528000
-0.000956	21.600000	0.536000
-0.000954	22.000000	0.536000
-0.000952	21.600000	0.536000
-0.000950	22.000000	0.544000
-0.000948	22.400000	0.552000
-0.000946	22.800000	0.568000
-0.000944	23.200000	0.568000
-0.000942	23.200000	0.576000
-0.000940	23.200000	0.576000
-0.000938	23.600000	0.584000
-0.000936	24.000000	0.592000
-0.000934	24.400000	0.600000
-0.000932	24.400000	0.600000
-0.000930	24.400000	0.600000
-0.000928	24.800000	0.608000
-0.000926	25.200000	0.616000
-0.000924	25.600000	0.624000
-0.000922	25.600000	0.632000
-0.000920	25.600000	0.632000
-0.000918	25.600000	0.640000
-0.000916	26.000000	0.648000
-0.000914	26.400000	0.656000
-0.000912	26.800000	0.664000
-0.000910	26.800000	0.664000
-0.000908	26.800000	0.672000
-0.000906	27.200000	0.680000
-0.000904	27.600000	0.680000
-0.000902	28.000000	0.688000
-0.000900	28.400000	0.696000
-0.000898	28.400000	0.696000
-0.000896	28.400000	0.704000
-0.000894	28.800000	0.712000
-0.000892	28.800000	0.712000
-0.000890	28.800000	0.720000
-0.000888	29.200000	0.728000
-0.000886	29.200000	0.728000
-0.000884	29.600000	0.736000
-0.000882	29.600000	0.736000
-0.000880	29.200000	0.736000
-0.000878	28.800000	0.728000
-0.000876	28.800000	0.720000
-0.000874	28.400000	0.712000
-0.000872	28.400000	0.712000
-0.000870	28.000000	0.704000
-0.000868	28.000000	0.696000
-0.000866	27.600000	0.696000
-0.000864	27.200000	0.688000
-0.000862	26.800000	0.688000
-0.000860	26.800000	0.680000
-0.000858	26.400000	0.680000
-0.000856	26.400000	0.672000
-0.000854	26.000000	0.672000
-0.000852	26.000000	0.664000
-0.000850	25.600000	0.664000
-0.000848	25.200000	0.664000
-0.000846	25.200000	0.648000
-0.000844	24.800000	0.648000
-0.000842	24.800000	0.640000
-0.000840	24.400000	0.640000
-0.000838	24.000000	0.632000
-0.000836	24.000000	0.624000
-0.000834	23.600000	0.624000
-0.000832	23.600000	0.616000
-0.000830	23.200000	0.616000
-0.000828	22.800000	0.608000
-0.000826	22.800000	0.600000
-0.000824	22.400000	0.600000
-0.000822	22.400000	0.592000
-0.000820	22.000000	0.584000
-0.000818	21.600000	0.584000
-0.000816	21.600000	0.568000
-0.000814	21.200000	0.576000
-0.000812	20.800000	0.560000
-0.000810	20.800000	0.560000
-0.000808	20.400000	0.560000
-0.000806	20.400000	0.552000
-0.000804	20.000000	0.544000
-0.000802	20.000000	0.544000
-0.000800	19.600000	0.528000
-0.000798	19.200000	0.536000
-0.000796	19.200000	0.528000
-0.000794	18.800000	0.528000
-0.000792	18.800000	0.528000
-0.000790	18.400000	0.520000
-0.000788	18.400000	0.512000
-0.000786	18.000000	0.512000
-0.000784	17.600000	0.496000
-0.000782	17.600000	0.480000
-0.000780	17.200000	0.480000
-0.000778	17.200000	0.488000
-0.000776	16.800000	0.480000
-0.000774	16.800000	0.464000
-0.000772	16.400000	0.456000
-0.000770	16.000000	0.448000
-0.000768	16.000000	0.464000
-0.000766	15.600000	0.448000
-0.000764	15.600000	0.456000
-0.000762	15.200000	0.440000
-0.000760	14.800000	0.432000
-0.000758	14.400000	0.424000
-0.000756	14.400000	0.416000
-0.000754	14.000000	0.400000
-0.000752	14.000000	0.400000
-0.000750	13.600000	0.408000
-0.000748	13.600000	0.384000
-0.000746	13.200000	0.400000
-0.000744	13.200000	0.384000
-0.000742	12.800000	0.384000
-0.000740	12.400000	0.376000
-0.000738	12.400000	0.376000
-0.000736	12.000000	0.368000
-0.000734	12.000000	0.352000
-0.000732	11.600000	0.344000
-0.000730	11.200000	0.352000
-0.000728	11.200000	0.336000
-0.000726	10.800000	0.336000
-0.000724	10.400000	0.320000
-0.000722	10.400000	0.328000
-0.000720	10.000000	0.304000
-0.000718	10.000000	0.312000
-0.000716	9.600000	0.312000
-0.000714	9.600000	0.296000
-0.000712	9.200000	0.304000
-0.000710	9.200000	0.280000
-0.000708	8.800000	0.288000
-0.000706	8.400000	0.256000
-0.000704	8.000000	0.272000
-0.000702	8.000000	0.256000
-0.000700	7.600000	0.264000
-0.000698	7.600000	0.256000
-0.000696	7.200000	0.248000
-0.000694	7.200000	0.240000
-0.000692	6.800000	0.224000
-0.000690	6.400000	0.224000
-0.000688	6.400000	0.224000
-0.000686	6.000000	0.208000
-0.000684	5.600000	0.200000
-0.000682	5.600000	0.192000
-0.000680	5.200000	0.200000
-0.000678	5.200000	0.184000
-0.000676	4.800000	0.192000
-0.000674	4.800000	0.168000
-0.000672	4.400000	0.176000
-0.000670	4.400000	0.152000
-0.000668	4.000000	0.160000
-0.000666	3.600000	0.144000
-0.000664	3.600000	0.144000
-0.000662	3.200000	0.136000
-0.000660	3.200000	0.144000
-0.000658	2.800000	0.120000
-0.000656	2.400000	0.128000
-0.000654	2.000000	0.112000
-0.000652	2.000000	0.096000
-0.000650	1.600000	0.104000
-0.000648	1.600000	0.080000
-0.000646	1.200000	0.096000
-0.000644	1.200000	0.080000
-0.000642	0.800000	0.072000
-0.000640	0.800000	0.072000
-0.000638	0.400000	0.048000
-0.000636	0.400000	0.064000
-0.000634	0.000000	0.056000
-0.000632	-0.400000	0.040000
-0.000630	-0.400000	0.032000
-0.000628	-0.800000	0.016000
-0.000626	-0.800000	0.024000
-0.000624	-1.200000	0.032000
-0.000622	-1.600000	0.008000
-0.000620	-1.600000	-0.016000
-0.000618	-2.000000	-0.016000
-0.000616	-2.000000	-0.008000
-0.000614	-2.400000	0.000000
-0.000612	-2.800000	-0.024000
-0.000610	-2.800000	-0.032000
-0.000608	-3.200000	-0.040000
-0.000606	-3.600000	-0.032000
-0.000604	-3.600000	-0.048000
-0.000602	-4.000000	-0.064000
-0.000600	-4.400000	-0.048000
-0.000598	-4.400000	-0.064000
-0.000596	-4.800000	-0.064000
-0.000594	-5.200000	-0.080000
-0.000592	-5.200000	-0.088000
-0.000590	-5.200000	-0.112000
-0.000588	-5.600000	-0.104000
-0.000586	-6.000000	-0.104000
-0.000584	-6.000000	-0.128000
-0.000582	-6.400000	-0.128000
-0.000580	-6.400000	-0.128000
-0.000578	-6.800000	-0.128000
-0.000576	-7.200000	-0.152000
-0.000574	-7.200000	-0.160000
-0.000572	-7.600000	-0.160000
-0.000570	-7.600000	-0.168000
-0.000568	-8.000000	-0.168000
-0.000566	-8.000000	-0.184000
-0.000564	-8.400000	-0.184000
-0.000562	-8.800000	-0.184000
-0.000560	-8.800000	-0.200000
-0.000558	-9.200000	-0.200000
-0.000556	-9.600000	-0.216000
-0.000554	-10.000000	-0.224000
-0.000552	-10.000000	-0.224000
-0.000550	-10.400000	-0.232000
-0.000548	-10.400000	-0.240000
-0.000546	-10.800000	-0.248000
-0.000544	-10.800000	-0.256000
-0.000542	-11.200000	-0.256000
-0.000540	-11.200000	-0.264000
-0.000538	-11.600000	-0.272000
-0.000536	-12.000000	-0.280000
-0.000534	-12.000000	-0.288000
-0.000532	-12.400000	-0.296000
-0.000530	-12.800000	-0.296000
-0.000528	-12.800000	-0.304000
-0.000526	-13.200000	-0.312000
-0.000524	-13.200000	-0.320000
-0.000522	-13.600000	-0.328000
-0.000520	-13.600000	-0.328000
-0.000518	-14.000000	-0.336000
-0.000516	-14.400000	-0.344000
-0.000514	-14.400000	-0.352000
-0.000512	-14.400000	-0.360000
-0.000510	-14.800000	-0.368000
-0.000508	-15.200000	-0.368000
-0.000506	-15.200000	-0.376000
-0.000504	-15.600000	-0.384000
-0.000502	-16.000000	-0.392000
-0.000500	-16.000000	-0.392000
-0.000498	-16.400000	-0.400000
-0.000496	-16.800000	-0.408000
-0.000494	-16.800000	-0.416000
-0.000492	-17.200000	-0.424000
-0.000490	-17.200000	-0.424000
-0.000488	-17.600000	-0.432000
-0.000486	-18.000000	-0.440000
-0.000484	-18.000000	-0.448000
-0.000482	-18.400000	-0.456000
-0.000480	-18.400000	-0.456000
-0.000478	-18.800000	-0.464000
-0.000476	-18.800000	-0.472000
-0.000474	-19.200000	-0.480000
-0.000472	-19.200000	-0.480000
-0.000470	-19.600000	-0.488000
-0.000468	-20.000000	-0.496000
-0.000466	-20.000000	-0.504000
-0.000464	-20.400000	-0.504000
-0.000462	-20.400000	-0.512000
-0.000460	-20.800000	-0.520000
-0.000458	-21.200000	-0.528000
-0.000456	-21.200000	-0.536000
-0.000454	-21.600000	-0.536000
-0.000452	-22.000000	-0.544000
-0.000450	-22.000000	-0.552000
-0.000448	-22.400000	-0.560000
-0.000446	-22.800000	-0.560000
-0.000444	-22.800000	-0.568000
-0.000442	-22.800000	-0.576000
-0.000440	-23.200000	-0.584000
-0.000438	-23.600000	-0.584000
-0.000436	-23.600000	-0.592000
-0.000434	-24.000000	-0.600000
-0.000432	-24.000000	-0.608000
-0.000430	-24.400000	-0.608000
-0.000428	-24.800000	-0.616000
-0.000426	-24.800000	-0.624000
-0.000424	-25.200000	-0.632000
-0.000422	-25.200000	-0.632000
-0.000420	-25.600000	-0.640000
-0.000418	-26.000000	-0.648000
-0.000416	-26.000000	-0.656000
-0.000414	-26.400000	-0.656000
-0.000412	-26.400000	-0.664000
-0.000410	-26.800000	-0.672000
-0.000408	-26.800000	-0.672000
-0.000406	-27.200000	-0.680000
-0.000404	-27.600000	-0.688000
-0.000402	-27.600000	-0.688000
-0.000400	-28.000000	-0.696000
-0.000398	-28.400000	-0.704000
-0.000396	-28.400000	-0.704000
-0.000394	-28.800000	-0.712000
-0.000392	-28.800000	-0.720000
-0.000390	-29.200000	-0.720000
-0.000388	-29.200000	-0.728000
-0.000386	-29.200000	-0.728000
-0.000384	-29.200000	-0.728000
-0.000382	-29.600000	-0.728000
-0.000380	-29.200000	-0.728000
-0.000378	-29.200000	-0.720000
-0.000376	-28.400000	-0.712000
-0.000374	-28.400000	-0.712000
-0.000372	-28.400000	-0.712000
-0.000370	-28.400000	-0.704000
-0.000368	-27.600000	-0.696000
-0.000366	-27.200000	-0.696000
-0.000364	-27.200000	-0.696000
-0.000362	-27.200000	-0.688000
-0.000360	-26.800000	-0.688000
-0.000358	-26.400000	-0.680000
-0.000356	-26.000000	-0.672000
-0.000354	-26.000000	-0.672000
-0.000352	-26.000000	-0.672000
-0.000350	-26.000000	-0.664000
-0.000348	-25.200000	-0.656000
-0.000346	-24.800000	-0.648000
-0.000344	-24.800000	-0.648000
-0.000342	-24.800000	-0.648000
-0.000340	-24.800000	-0.640000
-0.000338	-24.000000	-0.632000
-0.000336	-23.600000	-0.624000
-0.000334	-23.600000	-0.624000
-0.000332	-23.600000	-0.624000
-0.000330	-23.600000	-0.616000
-0.000328	-22.800000	-0.608000
-0.000326	-22.800000	-0.600000
-0.000324	-22.400000	-0.600000
-0.000322	-22.400000	-0.600000
-0.000320	-22.400000	-0.592000
-0.000318	-22.000000	-0.584000
-0.000316	-21.200000	-0.576000
-0.000314	-20.800000	-0.576000
-0.000312	-20.800000	-0.568000
-0.000310	-20.800000	-0.568000
-0.000308	-20.800000	-0.560000
-0.000306	-20.000000	-0.552000
-0.000304	-19.600000	-0.544000
-0.000302	-19.600000	-0.544000
-0.000300	-19.600000	-0.544000
-0.000298	-19.600000	-0.536000
-0.000296	-18.800000	-0.528000
-0.000294	-18.800000	-0.520000
-0.000292	-18.400000	-0.520000
-0.000290	-18.400000	-0.520000
-0.000288	-18.400000	-0.512000
-0.000286	-18.000000	-0.504000
-0.000284	-17.600000	-0.496000
-0.000282	-17.200000	-0.496000
-0.000280	-17.200000	-0.488000
-0.000278	-17.200000	-0.488000
-0.000276	-16.800000	-0.480000
-0.000274	-16.400000	-0.472000
-0.000272	-16.000000	-0.464000
-0.000270	-16.000000	-0.464000
-0.000268	-16.000000	-0.456000
-0.000266	-15.600000	-0.448000
-0.000264	-15.200000	-0.440000
-0.000262	-14.800000	-0.432000
-0.000260	-14.400000	-0.432000
-0.000258	-14.800000	-0.432000
-0.000256	-14.400000	-0.424000
-0.000254	-14.000000	-0.416000
-0.000252	-13.600000	-0.408000
-0.000250	-13.200000	-0.400000
-0.000248	-13.600000	-0.400000
-0.000246	-13.200000	-0.392000
-0.000244	-12.800000	-0.384000
-0.000242	-12.400000	-0.376000
-0.000240	-12.000000	-0.376000
-0.000238	-12.000000	-0.368000
-0.000236	-12.000000	-0.368000
-0.000234	-12.000000	-0.360000
-0.000232	-11.200000	-0.352000
-0.000230	-11.200000	-0.344000
-0.000228	-10.800000	-0.336000
-0.000226	-10.800000	-0.336000
-0.000224	-10.800000	-0.328000
-0.000222	-10.400000	-0.320000
-0.000220	-10.000000	-0.312000
-0.000218	-9.600000	-0.312000
-0.000216	-9.600000	-0.304000
-0.000214	-9.600000	-0.304000
-0.000212	-9.200000	-0.296000
-0.000210	-8.800000	-0.288000
-0.000208	-8.400000	-0.280000
-0.000206	-8.400000	-0.280000
-0.000204	-8.000000	-0.272000
-0.000202	-8.000000	-0.264000
-0.000200	-7.600000	-0.256000
-0.000198	-7.200000	-0.248000
-0.000196	-6.800000	-0.240000
-0.000194	-6.800000	-0.240000
-0.000192	-6.800000	-0.232000
-0.000190	-6.400000	-0.224000
-0.000188	-6.000000	-0.216000
-0.000186	-5.600000	-0.208000
-0.000184	-5.600000	-0.208000
-0.000182	-5.600000	-0.200000
-0.000180	-5.600000	-0.200000
-0.000178	-5.200000	-0.184000
-0.000176	-4.800000	-0.176000
-0.000174	-4.400000	-0.176000
-0.000172	-4.400000	-0.168000
-0.000170	-4.400000	-0.160000
-0.000168	-4.000000	-0.160000
-0.000166	-3.600000	-0.144000
-0.000164	-3.200000	-0.136000
-0.000162	-2.800000	-0.136000
-0.000160	-2.800000	-0.128000
-0.000158	-2.800000	-0.128000
-0.000156	-2.400000	-0.120000
-0.000154	-2.000000	-0.112000
-0.000152	-1.600000	-0.104000
-0.000150	-1.600000	-0.096000
-0.000148	-1.600000	-0.096000
-0.000146	-1.200000	-0.088000
-0.000144	-0.800000	-0.080000
-0.000142	-0.400000	-0.064000
-0.000140	-0.400000	-0.064000
-0.000138	0.000000	-0.064000
-0.000136	0.000000	-0.056000
-0.000134	0.400000	-0.048000
-0.000132	0.800000	-0.032000
-0.000130	0.800000	-0.032000
-0.000128	0.800000	-0.032000
-0.000126	1.200000	-0.016000
-0.000124	1.200000	-0.008000
-0.000122	1.600000	0.000000
-0.000120	2.000000	0.008000
-0.000118	2.000000	0.008000
-0.000116	2.400000	0.016000
-0.000114	2.400000	0.024000
-0.000112	2.800000	0.032000
-0.000110	3.200000	0.040000
-0.000108	3.600000	0.040000
-0.000106	3.600000	0.048000
-0.000104	3.600000	0.048000
-0.000102	4.000000	0.056000
-0.000100	4.400000	0.072000
-9.800000E-5	4.800000	0.080000
-9.600000E-5	4.800000	0.080000
-9.400000E-5	5.200000	0.088000
-9.200000E-5	5.200000	0.096000
-9.000000E-5	5.600000	0.096000
-8.800000E-5	6.000000	0.112000
-8.600000E-5	6.000000	0.120000
-8.400000E-5	6.400000	0.120000
-8.200000E-5	6.400000	0.120000
-8.000000E-5	6.400000	0.128000
-7.800000E-5	6.800000	0.144000
-7.600000E-5	7.200000	0.152000
-7.400000E-5	7.600000	0.152000
-7.200000E-5	7.600000	0.160000
-7.000000E-5	7.600000	0.168000
-6.800000E-5	8.000000	0.176000
-6.600000E-5	8.400000	0.184000
-6.400000E-5	8.800000	0.192000
-6.200000E-5	9.200000	0.192000
-6.000000E-5	9.200000	0.200000
-5.800000E-5	9.200000	0.200000
-5.600000E-5	9.600000	0.208000
-5.400000E-5	10.000000	0.224000
-5.200000E-5	10.400000	0.224000
-5.000000E-5	10.400000	0.232000
-4.800000E-5	10.400000	0.240000
-4.600000E-5	10.800000	0.248000
-4.400000E-5	11.200000	0.256000
-4.200000E-5	11.600000	0.264000
-4.000000E-5	11.600000	0.264000
-3.800000E-5	11.600000	0.272000
-3.600000E-5	12.000000	0.280000
-3.400000E-5	12.400000	0.288000
-3.200000E-5	12.400000	0.296000
-3.000000E-5	12.800000	0.296000
-2.800000E-5	12.800000	0.304000
-2.600000E-5	12.800000	0.312000
-2.400000E-5	13.200000	0.320000
-2.200000E-5	13.600000	0.328000
-2.000000E-5	14.000000	0.336000
-1.800000E-5	14.000000	0.336000
-1.600000E-5	14.000000	0.344000
-1.400000E-5	14.400000	0.344000
-1.200000E-5	14.800000	0.360000
-1.000000E-5	15.200000	0.368000
-8.000000E-6	15.600000	0.368000
-6.000000E-6	15.600000	0.368000
-4.000000E-6	15.600000	0.376000
-2.000000E-6	16.000000	0.384000
0.000000	16.400000	0.400000
2.000000E-6	16.800000	0.400000
4.000000E-6	16.800000	0.408000
6.000000E-6	16.800000	0.408000
8.000000E-6	17.200000	0.416000
1.000000E-5	17.600000	0.424000
1.200000E-5	18.000000	0.440000
1.400000E-5	18.000000	0.440000
1.600000E-5	18.000000	0.440000
1.800000E-5	18.000000	0.448000
2.000000E-5	18.400000	0.456000
2.200000E-5	18.800000	0.464000
2.400000E-5	19.200000	0.472000
2.600000E-5	19.200000	0.472000
2.800000E-5	19.200000	0.480000
3.000000E-5	19.600000	0.488000
3.200000E-5	20.000000	0.496000
3.400000E-5	20.400000	0.504000
3.600000E-5	20.400000	0.504000
3.800000E-5	20.400000	0.512000
4.000000E-5	20.800000	0.520000
4.200000E-5	21.200000	0.528000
4.400000E-5	21.600000	0.536000
4.600000E-5	22.000000	0.536000
4.800000E-5	22.000000	0.536000
5.000000E-5	22.000000	0.544000
5.200000E-5	22.400000	0.552000
5.400000E-5	22.800000	0.568000
5.600000E-5	23.200000	0.568000
5.800000E-5	23.200000	0.576000
6.000000E-5	23.200000	0.576000
6.200000E-5	23.600000	0.584000
6.400000E-5	24.000000	0.592000
6.600000E-5	24.400000	0.600000
6.800000E-5	24.400000	0.600000
7.000000E-5	24.400000	0.600000
7.200000E-5	24.400000	0.608000
7.400000E-5	24.800000	0.616000
7.600000E-5	25.200000	0.624000
7.800000E-5	25.600000	0.632000
8.000000E-5	25.600000	0.632000
8.200000E-5	25.600000	0.640000
8.400000E-5	26.000000	0.648000
8.600000E-5	26.400000	0.656000
8.800000E-5	26.800000	0.664000
9.000000E-5	26.800000	0.664000
9.200000E-5	26.800000	0.672000
9.400000E-5	27.200000	0.680000
9.600000E-5	27.600000	0.680000
9.800000E-5	28.000000	0.688000
1.000000E-4	28.000000	0.696000
0.000102	28.400000	0.696000
0.000104	28.400000	0.704000
0.000106	28.800000	0.712000
0.000108	28.800000	0.712000
0.000110	28.800000	0.720000
0.000112	29.200000	0.728000
0.000114	29.200000	0.736000
0.000116	29.600000	0.736000
0.000118	29.600000	0.736000
0.000120	29.600000	0.736000
0.000122	29.200000	0.728000
0.000124	28.800000	0.712000
0.000126	28.400000	0.712000
0.000128	28.400000	0.712000
0.000130	28.000000	0.704000
0.000132	28.000000	0.704000
0.000134	27.600000	0.696000
0.000136	27.200000	0.688000
0.000138	27.200000	0.688000
0.000140	26.800000	0.680000
0.000142	26.400000	0.672000
0.000144	26.400000	0.672000
0.000146	26.000000	0.672000
0.000148	25.600000	0.664000
0.000150	25.600000	0.648000
0.000152	25.200000	0.648000
0.000154	25.200000	0.648000
0.000156	24.800000	0.648000
0.000158	24.800000	0.640000
0.000160	24.400000	0.632000
0.000162	24.000000	0.632000
0.000164	24.000000	0.624000
0.000166	23.600000	0.624000
0.000168	23.600000	0.624000
0.000170	23.200000	0.608000
0.000172	23.200000	0.608000
0.000174	22.800000	0.608000
0.000176	22.400000	0.592000
0.000178	22.400000	0.576000
0.000180	22.000000	0.592000
0.000182	22.000000	0.584000
0.000184	21.600000	0.592000
0.000186	21.200000	0.576000
0.000188	21.200000	0.568000
0.000190	20.800000	0.560000
0.000192	20.400000	0.560000
0.000194	20.400000	0.544000
0.000196	20.000000	0.544000
0.000198	20.000000	0.544000
0.000200	19.600000	0.528000
0.000202	19.200000	0.536000
0.000204	19.200000	0.536000
0.000206	18.800000	0.520000
0.000208	18.800000	0.528000
0.000210	18.400000	0.520000
0.000212	18.000000	0.504000
0.000214	18.000000	0.496000
0.000216	17.600000	0.504000
0.000218	17.600000	0.504000
0.000220	17.200000	0.480000
0.000222	17.200000	0.472000
0.000224	16.800000	0.472000
0.000226	16.800000	0.480000
0.000228	16.400000	0.464000
0.000230	16.000000	0.440000
0.000232	16.000000	0.456000
0.000234	15.600000	0.456000
0.000236	15.200000	0.432000
0.000238	15.200000	0.440000
0.000240	14.800000	0.440000
0.000242	14.800000	0.424000
0.000244	14.400000	0.416000
0.000246	14.000000	0.416000
0.000248	14.000000	0.416000
0.000250	13.600000	0.408000
0.000252	13.600000	0.408000
0.000254	13.200000	0.400000
0.000256	12.800000	0.384000
0.000258	12.800000	0.400000
0.000260	12.400000	0.368000
0.000262	12.400000	0.384000
0.000264	12.000000	0.352000
0.000266	12.000000	0.368000
0.000268	11.600000	0.344000
0.000270	11.200000	0.352000
0.000272	11.200000	0.336000
0.000274	10.800000	0.336000
0.000276	10.800000	0.320000
0.000278	10.400000	0.328000
0.000280	10.000000	0.312000
0.000282	10.000000	0.312000
0.000284	9.600000	0.296000
0.000286	9.600000	0.296000
0.000288	9.200000	0.296000
0.000290	9.200000	0.280000
0.000292	8.800000	0.280000
0.000294	8.400000	0.272000
0.000296	8.000000	0.272000
0.000298	8.000000	0.264000
0.000300	8.000000	0.256000
0.000302	7.600000	0.256000
0.000304	7.200000	0.224000
0.000306	7.200000	0.248000
0.000308	6.800000	0.216000
0.000310	6.400000	0.232000
0.000312	6.400000	0.232000
0.000314	6.000000	0.216000
0.000316	5.600000	0.200000
0.000318	5.600000	0.208000
0.000320	5.200000	0.192000
0.000322	5.200000	0.192000
0.000324	4.800000	0.176000
0.000326	4.800000	0.176000
0.000328	4.400000	0.168000
0.000330	4.400000	0.160000
0.000332	4.000000	0.152000
0.000334	3.600000	0.152000
0.000336	3.600000	0.144000
0.000338	3.200000	0.144000
0.000340	3.200000	0.136000
0.000342	2.800000	0.128000
0.000344	2.400000	0.120000
0.000346	2.400000	0.104000
0.000348	2.000000	0.104000
0.000350	1.600000	0.096000
0.000352	1.600000	0.096000
0.000354	1.200000	0.088000
0.000356	1.200000	0.080000
0.000358	0.800000	0.080000
0.000360	0.800000	0.056000
0.000362	0.400000	0.064000
0.000364	0.000000	0.048000
0.000366	0.000000	0.040000
0.000368	-0.400000	0.032000
0.000370	-0.400000	0.032000
0.000372	-0.800000	0.032000
0.000374	-0.800000	0.024000
0.000376	-1.200000	0.016000
0.000378	-1.600000	0.008000
0.000380	-1.600000	0.000000
0.000382	-2.000000	-0.008000
0.000384	-2.000000	-0.008000
0.000386	-2.400000	-0.024000
0.000388	-2.800000	-0.032000
0.000390	-2.800000	-0.024000
0.000392	-3.200000	-0.048000
0.000394	-3.600000	-0.040000
0.000396	-4.000000	-0.056000
0.000398	-4.000000	-0.064000
0.000400	-4.400000	-0.072000
0.000402	-4.400000	-0.080000
0.000404	-4.800000	-0.080000
0.000406	-4.800000	-0.088000
0.000408	-5.200000	-0.112000
0.000410	-5.600000	-0.096000
0.000412	-5.600000	-0.104000
0.000414	-6.000000	-0.112000
0.000416	-6.000000	-0.120000
0.000418	-6.400000	-0.128000
0.000420	-6.400000	-0.128000
0.000422	-6.800000	-0.136000
0.000424	-6.800000	-0.152000
0.000426	-7.200000	-0.168000
0.000428	-7.600000	-0.176000
0.000430	-7.600000	-0.176000
0.000432	-8.000000	-0.176000
0.000434	-8.400000	-0.168000
0.000436	-8.400000	-0.192000
0.000438	-8.800000	-0.200000
0.000440	-8.800000	-0.208000
0.000442	-9.200000	-0.192000
0.000444	-9.600000	-0.216000
0.000446	-9.600000	-0.224000
0.000448	-10.000000	-0.224000
0.000450	-10.400000	-0.232000
0.000452	-10.400000	-0.240000
0.000454	-10.800000	-0.248000
0.000456	-10.800000	-0.248000
0.000458	-11.200000	-0.256000
0.000460	-11.200000	-0.264000
0.000462	-11.600000	-0.272000
0.000464	-12.000000	-0.280000
0.000466	-12.000000	-0.288000
0.000468	-12.400000	-0.288000
0.000470	-12.800000	-0.296000
0.000472	-12.800000	-0.304000
0.000474	-12.800000	-0.312000
0.000476	-13.200000	-0.320000
0.000478	-13.600000	-0.320000
0.000480	-13.600000	-0.328000
0.000482	-14.000000	-0.336000
0.000484	-14.000000	-0.344000
0.000486	-14.400000	-0.352000
0.000488	-14.400000	-0.360000
0.000490	-14.800000	-0.360000
0.000492	-15.200000	-0.368000
0.000494	-15.200000	-0.376000
0.000496	-15.600000	-0.384000
0.000498	-16.000000	-0.392000
0.000500	-16.000000	-0.392000
0.000502	-16.400000	-0.400000
0.000504	-16.800000	-0.408000
0.000506	-16.800000	-0.416000
0.000508	-17.200000	-0.424000
0.000510	-17.200000	-0.424000
0.000512	-17.600000	-0.432000
0.000514	-18.000000	-0.440000
0.000516	-18.000000	-0.448000
0.000518	-18.400000	-0.456000
0.000520	-18.400000	-0.456000
0.000522	-18.800000	-0.464000
0.000524	-18.800000	-0.472000
0.000526	-19.200000	-0.480000
0.000528	-19.200000	-0.480000
0.000530	-19.600000	-0.488000
0.000532	-20.000000	-0.496000
0.000534	-20.000000	-0.504000
0.000536	-20.400000	-0.504000
0.000538	-20.400000	-0.512000
0.000540	-20.800000	-0.520000
0.000542	-21.200000	-0.528000
0.000544	-21.200000	-0.536000
0.000546	-21.600000	-0.536000
0.000548	-22.000000	-0.544000
0.000550	-22.000000	-0.552000
0.000552	-22.400000	-0.560000
0.000554	-22.400000	-0.560000
0.000556	-22.800000	-0.568000
0.000558	-22.800000	-0.576000
0.000560	-23.200000	-0.584000
0.000562	-23.200000	-0.584000
0.000564	-23.600000	-0.592000
0.000566	-24.000000	-0.600000
0.000568	-24.000000	-0.608000
0.000570	-24.400000	-0.608000
0.000572	-24.800000	-0.616000
0.000574	-24.800000	-0.624000
0.000576	-25.200000	-0.632000
0.000578	-25.200000	-0.632000
0.000580	-25.600000	-0.640000
0.000582	-26.000000	-0.648000
0.000584	-26.000000	-0.656000
0.000586	-26.400000	-0.656000
0.000588	-26.400000	-0.664000
0.000590	-26.800000	-0.672000
0.000592	-26.800000	-0.672000
0.000594	-27.200000	-0.680000
0.000596	-27.600000	-0.688000
0.000598	-28.000000	-0.688000
0.000600	-28.000000	-0.696000
0.000602	-28.400000	-0.704000
0.000604	-28.400000	-0.704000
0.000606	-28.800000	-0.712000
0.000608	-28.800000	-0.720000
0.000610	-29.200000	-0.720000
0.000612	-29.200000	-0.728000
0.000614	-29.200000	-0.728000
0.000616	-29.600000	-0.728000
0.000618	-29.600000	-0.728000
0.000620	-29.200000	-0.728000
0.000622	-29.200000	-0.720000
0.000624	-28.400000	-0.712000
0.000626	-28.400000	-0.712000
0.000628	-28.400000	-0.712000
0.000630	-28.400000	-0.704000
0.000632	-27.600000	-0.696000
0.000634	-27.200000	-0.696000
0.000636	-27.200000	-0.696000
0.000638	-27.200000	-0.688000
0.000640	-26.800000	-0.688000
0.000642	-26.400000	-0.680000
0.000644	-26.000000	-0.672000
0.000646	-26.000000	-0.672000
0.000648	-26.000000	-0.672000
0.000650	-26.000000	-0.664000
0.000652	-25.200000	-0.656000
0.000654	-24.800000	-0.648000
0.000656	-24.800000	-0.648000
0.000658	-24.800000	-0.648000
0.000660	-24.800000	-0.640000
0.000662	-24.000000	-0.632000
0.000664	-23.600000	-0.624000
0.000666	-23.600000	-0.624000
0.000668	-23.600000	-0.624000
0.000670	-23.600000	-0.616000
0.000672	-22.800000	-0.608000
0.000674	-22.400000	-0.600000
0.000676	-22.400000	-0.600000
0.000678	-22.400000	-0.600000
0.000680	-22.400000	-0.592000
0.000682	-22.000000	-0.584000
0.000684	-21.200000	-0.576000
0.000686	-20.800000	-0.576000
0.000688	-20.800000	-0.568000
0.000690	-21.200000	-0.568000
0.000692	-20.400000	-0.560000
0.000694	-20.000000	-0.552000
0.000696	-19.600000	-0.544000
0.000698	-19.600000	-0.544000
0.000700	-19.600000	-0.544000
0.000702	-19.600000	-0.536000
0.000704	-18.800000	-0.528000
0.000706	-18.400000	-0.520000
0.000708	-18.400000	-0.520000
0.000710	-18.400000	-0.520000
0.000712	-18.400000	-0.512000
0.000714	-18.000000	-0.504000
0.000716	-17.600000	-0.496000
0.000718	-17.200000	-0.496000
0.000720	-17.200000	-0.488000
0.000722	-17.200000	-0.480000
0.000724	-16.800000	-0.480000
0.000726	-16.400000	-0.464000
0.000728	-16.000000	-0.464000
0.000730	-16.000000	-0.464000
0.000732	-16.000000	-0.456000
0.000734	-15.600000	-0.448000
0.000736	-15.200000	-0.448000
0.000738	-14.800000	-0.432000
0.000740	-14.400000	-0.432000
0.000742	-14.800000	-0.432000
0.000744	-14.400000	-0.424000
0.000746	-14.000000	-0.416000
0.000748	-13.600000	-0.408000
0.000750	-13.600000	-0.400000
0.000752	-13.600000	-0.400000
0.000754	-13.200000	-0.392000
0.000756	-12.800000	-0.392000
0.000758	-12.400000	-0.376000
0.000760	-12.400000	-0.376000
0.000762	-12.000000	-0.368000
0.000764	-12.000000	-0.368000
0.000766	-12.000000	-0.360000
0.000768	-11.600000	-0.352000
0.000770	-11.200000	-0.344000
0.000772	-10.800000	-0.344000
0.000774	-10.800000	-0.336000
0.000776	-10.800000	-0.328000
0.000778	-10.400000	-0.328000
0.000780	-10.000000	-0.312000
0.000782	-9.600000	-0.312000
0.000784	-9.600000	-0.304000
0.000786	-9.600000	-0.304000
0.000788	-9.200000	-0.296000
0.000790	-8.800000	-0.288000
0.000792	-8.400000	-0.280000
0.000794	-8.000000	-0.280000
0.000796	-8.400000	-0.272000
0.000798	-8.000000	-0.264000
0.000800	-7.600000	-0.256000
0.000802	-7.200000	-0.248000
0.000804	-6.800000	-0.240000
0.000806	-6.800000	-0.240000
0.000808	-6.800000	-0.232000
0.000810	-6.400000	-0.224000
0.000812	-6.000000	-0.216000
0.000814	-6.000000	-0.208000
0.000816	-5.600000	-0.208000
0.000818	-5.600000	-0.200000
0.000820	-5.600000	-0.200000
0.000822	-5.200000	-0.184000
0.000824	-4.800000	-0.176000
0.000826	-4.400000	-0.176000
0.000828	-4.400000	-0.168000
0.000830	-4.400000	-0.160000
0.000832	-4.000000	-0.160000
0.000834	-3.600000	-0.144000
0.000836	-3.200000	-0.136000
0.000838	-2.800000	-0.136000
0.000840	-2.800000	-0.136000
0.000842	-2.800000	-0.128000
0.000844	-2.400000	-0.120000
0.000846	-2.000000	-0.112000
0.000848	-1.600000	-0.104000
0.000850	-1.600000	-0.096000
0.000852	-1.600000	-0.096000
0.000854	-1.200000	-0.088000
0.000856	-0.800000	-0.080000
0.000858	-0.400000	-0.072000
0.000860	-0.400000	-0.064000
0.000862	0.000000	-0.064000
0.000864	0.000000	-0.056000
0.000866	0.400000	-0.048000
0.000868	0.800000	-0.032000
0.000870	0.800000	-0.032000
0.000872	0.800000	-0.032000
0.000874	1.200000	-0.016000
0.000876	1.200000	-0.008000
0.000878	1.600000	0.000000
0.000880	2.000000	0.008000
0.000882	2.000000	0.008000
0.000884	2.400000	0.016000
0.000886	2.400000	0.024000
0.000888	2.800000	0.032000
0.000890	3.200000	0.040000
0.000892	3.600000	0.040000
0.000894	3.600000	0.048000
0.000896	3.600000	0.048000
0.000898	4.000000	0.056000
0.000900	4.400000	0.072000
0.000902	4.800000	0.080000
0.000904	5.200000	0.080000
0.000906	5.200000	0.088000
0.000908	5.200000	0.096000
0.000910	5.600000	0.096000
0.000912	6.000000	0.112000
0.000914	6.000000	0.120000
0.000916	6.400000	0.120000
0.000918	6.400000	0.120000
0.000920	6.400000	0.128000
0.000922	6.800000	0.144000
0.000924	7.200000	0.152000
0.000926	7.600000	0.152000
0.000928	7.600000	0.160000
0.000930	7.600000	0.168000
0.000932	8.000000	0.168000
0.000934	8.400000	0.184000
0.000936	8.800000	0.192000
0.000938	9.200000	0.192000
0.000940	9.200000	0.200000
0.000942	9.200000	0.200000
0.000944	9.600000	0.216000
0.000946	10.000000	0.224000
0.000948	10.000000	0.232000
0.000950	10.400000	0.232000
0.000952	10.400000	0.240000
0.000954	10.800000	0.248000
0.000956	11.200000	0.256000
0.000958	11.600000	0.264000
0.000960	11.600000	0.264000
0.000962	11.600000	0.272000
0.000964	12.000000	0.280000
0.000966	12.400000	0.288000
0.000968	12.400000	0.296000
0.000970	12.800000	0.296000
0.000972	12.800000	0.304000
0.000974	13.200000	0.312000
0.000976	13.200000	0.320000
0.000978	13.600000	0.328000
0.000980	14.000000	0.336000
0.000982	14.000000	0.336000
0.000984	14.000000	0.344000
0.000986	14.400000	0.352000
0.000988	14.800000	0.360000
0.000990	15.200000	0.368000
0.000992	15.600000	0.368000
0.000994	15.600000	0.368000
0.000996	15.600000	0.376000
0.000998	16.000000	0.384000
0.001000	16.400000	0.400000
0.001002	16.800000	0.408000
0.001004	16.800000	0.408000
0.001006	16.800000	0.408000
0.001008	17.200000	0.416000
0.001010	17.600000	0.424000
0.001012	17.600000	0.440000
0.001014	18.000000	0.440000
0.001016	18.000000	0.440000
0.001018	18.000000	0.448000
0.001020	18.400000	0.456000
0.001022	18.800000	0.464000
0.001024	19.200000	0.472000
0.001026	19.200000	0.472000
0.001028	19.200000	0.480000
0.001030	19.600000	0.488000
0.001032	20.000000	0.496000
0.001034	20.400000	0.504000
0.001036	20.400000	0.504000
0.001038	20.400000	0.512000
0.001040	20.800000	0.520000
0.001042	21.200000	0.528000
0.001044	21.600000	0.536000
0.001046	22.000000	0.536000
0.001048	21.600000	0.536000
0.001050	22.000000	0.544000
0.001052	22.400000	0.560000
0.001054	22.800000	0.568000
0.001056	23.200000	0.568000
0.001058	23.200000	0.576000
0.001060	23.200000	0.576000
0.001062	23.600000	0.584000
0.001064	24.000000	0.592000
0.001066	24.400000	0.600000
0.001068	24.400000	0.600000
0.001070	24.400000	0.608000
0.001072	24.400000	0.608000
0.001074	25.200000	0.616000
0.001076	25.200000	0.624000
0.001078	25.600000	0.632000
0.001080	25.600000	0.632000
0.001082	25.600000	0.640000
0.001084	26.000000	0.648000
0.001086	26.400000	0.656000
0.001088	26.800000	0.664000
0.001090	26.800000	0.664000
0.001092	26.800000	0.672000
0.001094	27.200000	0.680000
0.001096	27.600000	0.680000
0.001098	28.000000	0.688000
0.001100	28.000000	0.696000
0.001102	28.400000	0.704000
0.001104	28.400000	0.704000
0.001106	28.800000	0.712000
0.001108	28.800000	0.712000
0.001110	28.800000	0.720000
0.001112	29.200000	0.728000
0.001114	29.200000	0.736000
0.001116	29.600000	0.736000
0.001118	29.600000	0.736000
0.001120	29.600000	0.728000
0.001122	29.200000	0.728000
0.001124	28.800000	0.720000
0.001126	28.400000	0.712000
0.001128	28.400000	0.712000
0.001130	28.000000	0.704000
0.001132	28.000000	0.704000
0.001134	27.600000	0.696000
0.001136	27.200000	0.688000
0.001138	26.800000	0.688000
0.001140	26.800000	0.680000
0.001142	26.400000	0.680000
0.001144	26.000000	0.672000
0.001146	26.000000	0.672000
0.001148	25.600000	0.664000
0.001150	25.600000	0.664000
0.001152	25.200000	0.648000
0.001154	25.200000	0.648000
0.001156	24.800000	0.648000
0.001158	24.800000	0.640000
0.001160	24.400000	0.632000
0.001162	24.000000	0.632000
0.001164	24.000000	0.624000
0.001166	23.600000	0.624000
0.001168	23.600000	0.616000
0.001170	23.200000	0.608000
0.001172	23.200000	0.608000
0.001174	22.800000	0.600000
0.001176	22.400000	0.592000
0.001178	22.400000	0.592000
0.001180	22.000000	0.584000
0.001182	22.000000	0.592000
0.001184	21.600000	0.560000
0.001186	21.200000	0.576000
0.001188	21.200000	0.576000
0.001190	20.800000	0.560000
0.001192	20.400000	0.576000
0.001194	20.400000	0.560000
0.001196	20.000000	0.560000
0.001198	20.000000	0.544000
0.001200	19.600000	0.536000
0.001202	19.200000	0.528000
0.001204	19.200000	0.536000
0.001206	18.800000	0.528000
0.001208	18.800000	0.520000
0.001210	18.400000	0.512000
0.001212	18.000000	0.504000
0.001214	18.000000	0.496000
0.001216	17.600000	0.496000
0.001218	17.600000	0.504000
0.001220	17.200000	0.496000
0.001222	17.200000	0.480000
0.001224	16.800000	0.464000
0.001226	16.800000	0.472000
0.001228	16.400000	0.480000
0.001230	16.000000	0.456000
0.001232	16.000000	0.456000
0.001234	15.600000	0.456000
0.001236	15.600000	0.432000
0.001238	15.200000	0.448000
0.001240	14.800000	0.432000
0.001242	14.800000	0.416000
0.001244	14.400000	0.424000
0.001246	14.000000	0.408000
0.001248	14.000000	0.408000
0.001250	13.600000	0.416000
0.001252	13.600000	0.392000
0.001254	13.200000	0.392000
0.001256	13.200000	0.384000
0.001258	12.800000	0.376000
0.001260	12.400000	0.384000
0.001262	12.400000	0.368000
0.001264	12.000000	0.376000
0.001266	12.000000	0.360000
0.001268	11.600000	0.368000
0.001270	11.200000	0.344000
0.001272	11.200000	0.352000
0.001274	10.800000	0.328000
0.001276	10.800000	0.328000
0.001278	10.400000	0.304000
0.001280	10.000000	0.320000
0.001282	10.000000	0.312000
0.001284	9.600000	0.312000
0.001286	9.600000	0.304000
0.001288	9.200000	0.296000
0.001290	9.200000	0.296000
0.001292	8.800000	0.272000
0.001294	8.400000	0.272000
0.001296	8.400000	0.264000
0.001298	8.000000	0.256000
0.001300	7.600000	0.264000
0.001302	7.600000	0.240000
0.001304	7.200000	0.264000
0.001306	6.800000	0.224000
0.001308	6.800000	0.232000
0.001310	6.400000	0.224000
0.001312	6.400000	0.208000
0.001314	6.000000	0.216000
0.001316	6.000000	0.200000
0.001318	5.600000	0.200000
0.001320	5.200000	0.192000
0.001322	5.200000	0.192000
0.001324	4.800000	0.184000
0.001326	4.800000	0.176000
0.001328	4.400000	0.176000
0.001330	4.000000	0.168000
0.001332	4.000000	0.168000
0.001334	3.600000	0.144000
0.001336	3.600000	0.144000
0.001338	3.200000	0.128000
0.001340	3.200000	0.128000
0.001342	2.800000	0.120000
0.001344	2.400000	0.120000
0.001346	2.000000	0.120000
0.001348	2.000000	0.112000
0.001350	1.600000	0.096000
0.001352	1.600000	0.088000
0.001354	1.200000	0.088000
0.001356	1.200000	0.072000
0.001358	0.800000	0.072000
0.001360	0.800000	0.064000
0.001362	0.400000	0.064000
0.001364	0.000000	0.048000
0.001366	0.000000	0.032000
0.001368	-0.400000	0.032000
0.001370	-0.400000	0.040000
0.001372	-0.800000	0.024000
0.001374	-0.800000	0.016000
0.001376	-1.200000	0.008000
0.001378	-1.600000	0.016000
0.001380	-1.600000	0.008000
0.001382	-2.000000	0.000000
0.001384	-2.400000	-0.016000
0.001386	-2.400000	-0.024000
0.001388	-2.800000	-0.024000
0.001390	-2.800000	-0.032000
0.001392	-3.200000	-0.040000
0.001394	-3.600000	-0.040000
0.001396	-4.000000	-0.056000
0.001398	-4.000000	-0.056000
0.001400	-4.400000	-0.064000
0.001402	-4.400000	-0.056000
0.001404	-4.800000	-0.080000
0.001406	-4.800000	-0.088000
0.001408	-5.200000	-0.096000
0.001410	-5.600000	-0.104000
0.001412	-5.600000	-0.112000
0.001414	-6.000000	-0.104000
0.001416	-6.000000	-0.120000
0.001418	-6.400000	-0.128000
0.001420	-6.400000	-0.136000
0.001422	-6.800000	-0.144000
0.001424	-7.200000	-0.152000
0.001426	-7.200000	-0.160000
0.001428	-7.600000	-0.160000
0.001430	-7.600000	-0.168000
0.001432	-8.000000	-0.168000
0.001434	-8.400000	-0.176000
0.001436	-8.400000	-0.184000
0.001438	-8.800000	-0.184000
0.001440	-8.800000	-0.200000
0.001442	-9.200000	-0.208000
0.001444	-9.600000	-0.216000
0.001446	-9.600000	-0.224000
0.001448	-10.000000	-0.232000
0.001450	-10.400000	-0.232000
0.001452	-10.400000	-0.240000
0.001454	-10.800000	-0.248000
0.001456	-10.800000	-0.248000
0.001458	-11.200000	-0.256000
0.001460	-11.200000	-0.264000
0.001462	-11.600000	-0.272000
0.001464	-11.600000	-0.280000
0.001466	-12.000000	-0.288000
0.001468	-12.400000	-0.288000
0.001470	-12.400000	-0.296000
0.001472	-12.800000	-0.304000
0.001474	-13.200000	-0.312000
0.001476	-13.200000	-0.320000
0.001478	-13.600000	-0.328000
0.001480	-13.600000	-0.328000
0.001482	-14.000000	-0.336000
0.001484	-14.400000	-0.344000
0.001486	-14.400000	-0.352000
0.001488	-14.400000	-0.360000
0.001490	-14.800000	-0.360000
0.001492	-15.200000	-0.368000
0.001494	-15.200000	-0.376000
0.001496	-15.600000	-0.384000
0.001498	-16.000000	-0.392000
0.001500	-16.000000	-0.392000
0.001502	-16.400000	-0.400000
0.001504	-16.800000	-0.408000
0.001506	-16.800000	-0.416000
0.001508	-17.200000	-0.424000
0.001510	-17.200000	-0.424000
0.001512	-17.600000	-0.432000
0.001514	-18.000000	-0.440000
0.001516	-18.000000	-0.448000
0.001518	-18.400000	-0.456000
0.001520	-18.400000	-0.456000
0.001522	-18.800000	-0.464000
0.001524	-18.800000	-0.472000
0.001526	-19.200000	-0.480000
0.001528	-19.600000	-0.480000
0.001530	-19.600000	-0.488000
0.001532	-20.000000	-0.496000
0.001534	-20.000000	-0.504000
0.001536	-20.400000	-0.504000
0.001538	-20.800000	-0.512000
0.001540	-20.800000	-0.520000
0.001542	-21.200000	-0.528000
0.001544	-21.200000	-0.536000
0.001546	-21.600000	-0.536000
0.001548	-22.000000	-0.544000
0.001550	-22.000000	-0.552000
0.001552	-22.400000	-0.560000
0.001554	-22.400000	-0.560000
0.001556	-22.800000	-0.568000
0.001558	-22.800000	-0.576000
0.001560	-23.200000	-0.584000
0.001562	-23.600000	-0.584000
0.001564	-23.600000	-0.592000
0.001566	-24.000000	-0.600000
0.001568	-24.000000	-0.608000
0.001570	-24.400000	-0.608000
0.001572	-24.800000	-0.616000
0.001574	-24.800000	-0.624000
0.001576	-25.200000	-0.632000
0.001578	-25.200000	-0.632000
0.001580	-25.600000	-0.640000
0.001582	-26.000000	-0.648000
0.001584	-26.000000	-0.656000
0.001586	-26.400000	-0.656000
0.001588	-26.400000	-0.664000
0.001590	-26.800000	-0.672000
0.001592	-27.200000	-0.672000
0.001594	-27.200000	-0.680000
0.001596	-27.200000	-0.688000
0.001598	-28.000000	-0.688000
0.001600	-28.000000	-0.696000
0.001602	-28.000000	-0.704000
0.001604	-28.400000	-0.704000
0.001606	-28.800000	-0.712000
0.001608	-28.800000	-0.720000
0.001610	-29.200000	-0.720000
0.001612	-29.200000	-0.728000
0.001614	-29.200000	-0.728000
0.001616	-29.600000	-0.728000
0.001618	-29.600000	-0.728000
0.001620	-29.600000	-0.728000
0.001622	-29.200000	-0.720000
0.001624	-28.400000	-0.712000
0.001626	-28.400000	-0.712000
0.001628	-28.400000	-0.712000
0.001630	-28.400000	-0.704000
0.001632	-27.600000	-0.696000
0.001634	-27.200000	-0.696000
0.001636	-27.200000	-0.696000
0.001638	-27.200000	-0.688000
0.001640	-26.800000	-0.688000
0.001642	-26.400000	-0.680000
0.001644	-26.000000	-0.672000
0.001646	-26.000000	-0.672000
0.001648	-26.000000	-0.672000
0.001650	-26.000000	-0.664000
0.001652	-25.200000	-0.656000
0.001654	-24.800000	-0.648000
0.001656	-24.800000	-0.648000
0.001658	-24.800000	-0.648000
0.001660	-24.800000	-0.640000
0.001662	-24.000000	-0.632000
0.001664	-23.600000	-0.624000
0.001666	-23.600000	-0.624000
0.001668	-23.600000	-0.624000
0.001670	-23.600000	-0.616000
0.001672	-23.200000	-0.608000
0.001674	-22.800000	-0.600000
0.001676	-22.400000	-0.600000
0.001678	-22.400000	-0.600000
0.001680	-22.400000	-0.592000
0.001682	-22.000000	-0.584000
0.001684	-21.200000	-0.576000
0.001686	-20.800000	-0.576000
0.001688	-20.800000	-0.568000
0.001690	-21.200000	-0.568000
0.001692	-20.800000	-0.560000
0.001694	-20.000000	-0.552000
0.001696	-19.600000	-0.544000
0.001698	-19.600000	-0.544000
0.001700	-19.600000	-0.544000
0.001702	-19.600000	-0.536000
0.001704	-18.800000	-0.528000
0.001706	-18.400000	-0.520000
0.001708	-18.400000	-0.520000
0.001710	-18.400000	-0.520000
0.001712	-18.400000	-0.512000
0.001714	-18.000000	-0.504000
0.001716	-17.600000	-0.496000
0.001718	-17.200000	-0.496000
0.001720	-17.200000	-0.488000
0.001722	-17.200000	-0.480000
0.001724	-16.800000	-0.480000
0.001726	-16.400000	-0.464000
0.001728	-16.000000	-0.464000
0.001730	-16.000000	-0.464000
0.001732	-16.000000	-0.456000
0.001734	-15.600000	-0.448000
0.001736	-15.200000	-0.440000
0.001738	-14.800000	-0.432000
0.001740	-14.400000	-0.432000
0.001742	-14.800000	-0.432000
0.001744	-14.400000	-0.424000
0.001746	-14.000000	-0.416000
0.001748	-13.600000	-0.408000
0.001750	-13.200000	-0.400000
0.001752	-13.600000	-0.400000
0.001754	-13.200000	-0.392000
0.001756	-12.800000	-0.392000
0.001758	-12.400000	-0.376000
0.001760	-12.000000	-0.376000
0.001762	-12.000000	-0.368000
0.001764	-12.000000	-0.368000
0.001766	-12.000000	-0.360000
0.001768	-11.600000	-0.352000
0.001770	-11.200000	-0.344000
0.001772	-10.800000	-0.336000
0.001774	-10.800000	-0.336000
0.001776	-10.800000	-0.328000
0.001778	-10.400000	-0.320000
0.001780	-10.000000	-0.312000
0.001782	-9.600000	-0.312000
0.001784	-9.600000	-0.304000
0.001786	-9.600000	-0.304000
0.001788	-9.200000	-0.296000
0.001790	-8.800000	-0.288000
0.001792	-8.400000	-0.280000
0.001794	-8.000000	-0.280000
0.001796	-8.400000	-0.272000
0.001798	-8.000000	-0.264000
0.001800	-7.600000	-0.256000
0.001802	-7.200000	-0.248000
0.001804	-6.800000	-0.240000
0.001806	-6.800000	-0.240000
0.001808	-6.800000	-0.232000
0.001810	-6.400000	-0.224000
0.001812	-6.000000	-0.216000
0.001814	-6.000000	-0.208000
0.001816	-5.600000	-0.208000
0.001818	-5.600000	-0.200000
0.001820	-5.600000	-0.200000
0.001822	-5.200000	-0.184000
0.001824	-4.800000	-0.176000
0.001826	-4.400000	-0.176000
0.001828	-4.400000	-0.168000
0.001830	-4.400000	-0.160000
0.001832	-4.000000	-0.160000
0.001834	-3.600000	-0.144000
0.001836	-3.200000	-0.136000
0.001838	-2.800000	-0.136000
0.001840	-2.800000	-0.128000
0.001842	-2.800000	-0.128000
0.001844	-2.400000	-0.120000
0.001846	-2.000000	-0.112000
0.001848	-1.600000	-0.104000
0.001850	-1.600000	-0.096000
0.001852	-1.600000	-0.096000
0.001854	-1.200000	-0.088000
0.001856	-0.800000	-0.080000
0.001858	-0.400000	-0.064000
0.001860	0.000000	-0.064000
0.001862	-0.400000	-0.064000
0.001864	0.000000	-0.056000
0.001866	0.400000	-0.048000
0.001868	0.800000	-0.032000
0.001870	0.800000	-0.032000
0.001872	0.800000	-0.032000
0.001874	1.200000	-0.016000
0.001876	1.200000	-0.016000
0.001878	1.600000	0.000000
0.001880	2.000000	0.008000
0.001882	2.400000	0.008000
0.001884	2.400000	0.016000
0.001886	2.400000	0.024000
0.001888	2.800000	0.032000
0.001890	3.200000	0.040000
0.001892	3.600000	0.040000
0.001894	3.600000	0.048000
0.001896	3.600000	0.048000
0.001898	4.000000	0.056000
0.001900	4.400000	0.072000
0.001902	4.800000	0.080000
0.001904	4.800000	0.080000
0.001906	5.200000	0.088000
0.001908	5.200000	0.096000
0.001910	5.600000	0.096000
0.001912	6.000000	0.112000
0.001914	6.000000	0.112000
0.001916	6.400000	0.120000
0.001918	6.400000	0.120000
0.001920	6.400000	0.128000
0.001922	6.800000	0.144000
0.001924	7.200000	0.152000
0.001926	7.600000	0.152000
0.001928	7.600000	0.160000
0.001930	7.600000	0.168000
0.001932	8.000000	0.176000
0.001934	8.400000	0.184000
0.001936	8.800000	0.192000
0.001938	9.200000	0.192000
0.001940	9.200000	0.200000
0.001942	9.200000	0.200000
0.001944	9.600000	0.208000
0.001946	10.000000	0.224000
0.001948	10.400000	0.224000
0.001950	10.400000	0.232000
0.001952	10.400000	0.240000
0.001954	10.800000	0.248000
0.001956	11.200000	0.256000
0.001958	11.600000	0.264000
0.001960	11.600000	0.264000
0.001962	11.600000	0.272000
0.001964	12.000000	0.280000
0.001966	12.400000	0.288000
0.001968	12.800000	0.296000
0.001970	12.800000	0.296000
0.001972	12.800000	0.304000
0.001974	12.800000	0.312000
0.001976	13.200000	0.320000
0.001978	13.600000	0.328000
0.001980	14.000000	0.336000
0.001982	14.000000	0.336000
0.001984	14.000000	0.344000
0.001986	14.400000	0.352000
0.001988	14.800000	0.360000
0.001990	15.200000	0.368000
0.001992	15.600000	0.368000
0.001994	15.600000	0.368000
0.001996	15.600000	0.376000
0.001998	16.000000	0.384000
0.002000	16.400000	0.400000
0.002002	16.800000	0.400000
0.002004	16.800000	0.408000
0.002006	16.800000	0.416000
0.002008	17.200000	0.416000
0.002010	17.600000	0.424000
0.002012	17.600000	0.440000
0.002014	18.000000	0.440000
0.002016	18.000000	0.440000
0.002018	18.000000	0.448000
0.002020	18.400000	0.456000
0.002022	18.800000	0.464000
0.002024	19.200000	0.472000
0.002026	19.200000	0.472000
0.002028	19.200000	0.480000
0.002030	19.600000	0.488000
0.002032	20.000000	0.496000
0.002034	20.400000	0.504000
0.002036	20.400000	0.504000
0.002038	20.400000	0.512000
0.002040	20.800000	0.520000
0.002042	21.200000	0.528000
0.002044	21.600000	0.536000
0.002046	22.000000	0.536000
0.002048	22.000000	0.536000
0.002050	22.000000	0.544000
0.002052	22.400000	0.552000
0.002054	22.800000	0.568000
0.002056	23.200000	0.568000
0.002058	23.200000	0.576000
0.002060	23.200000	0.576000
0.002062	23.600000	0.584000
0.002064	24.000000	0.592000
0.002066	24.400000	0.600000
0.002068	24.400000	0.600000
0.002070	24.400000	0.600000
0.002072	24.400000	0.608000
0.002074	24.800000	0.616000
0.002076	25.200000	0.624000
0.002078	25.600000	0.632000
0.002080	25.600000	0.632000
0.002082	25.600000	0.640000
0.002084	26.000000	0.648000
0.002086	26.400000	0.656000
0.002088	26.800000	0.664000
0.002090	26.800000	0.664000
0.002092	26.800000	0.672000
0.002094	27.200000	0.672000
0.002096	27.600000	0.680000
0.002098	28.000000	0.688000
0.002100	28.000000	0.696000
0.002102	28.400000	0.696000
0.002104	28.400000	0.704000
0.002106	28.800000	0.712000
0.002108	28.800000	0.712000
0.002110	28.800000	0.720000
0.002112	29.200000	0.728000
0.002114	29.200000	0.736000
0.002116	29.600000	0.736000
0.002118	29.600000	0.736000
0.002120	29.600000	0.736000
0.002122	28.800000	0.728000
0.002124	28.800000	0.720000
0.002126	28.400000	0.712000
0.002128	28.400000	0.712000
0.002130	28.000000	0.704000
0.002132	28.000000	0.696000
0.002134	27.600000	0.696000
0.002136	27.200000	0.688000
0.002138	26.800000	0.688000
0.002140	26.800000	0.680000
0.002142	26.400000	0.672000
0.002144	26.000000	0.672000
0.002146	26.000000	0.672000
0.002148	25.600000	0.664000
0.002150	25.600000	0.656000
0.002152	25.200000	0.656000
0.002154	25.200000	0.648000
0.002156	24.800000	0.648000
0.002158	24.800000	0.640000
0.002160	24.400000	0.632000
0.002162	24.000000	0.632000
0.002164	24.000000	0.624000
0.002166	23.600000	0.616000
0.002168	23.600000	0.624000
0.002170	23.200000	0.608000
0.002172	23.200000	0.608000
0.002174	22.800000	0.600000
0.002176	22.400000	0.608000
0.002178	22.400000	0.600000
0.002180	22.000000	0.592000
0.002182	22.000000	0.576000
0.002184	21.600000	0.584000
0.002186	21.200000	0.576000
0.002188	21.200000	0.568000
0.002190	20.800000	0.560000
0.002192	20.400000	0.568000
0.002194	20.400000	0.560000
0.002196	20.000000	0.552000
0.002198	20.000000	0.544000
0.002200	19.600000	0.536000
0.002202	19.200000	0.544000
0.002204	19.200000	0.544000
0.002206	18.800000	0.536000
0.002208	18.800000	0.528000
0.002210	18.400000	0.504000
0.002212	18.000000	0.504000
0.002214	18.000000	0.504000
0.002216	17.600000	0.496000
0.002218	17.600000	0.488000
0.002220	17.200000	0.488000
0.002222	17.200000	0.480000
0.002224	16.800000	0.480000
0.002226	16.800000	0.472000
0.002228	16.400000	0.464000
0.002230	16.000000	0.472000
0.002232	16.000000	0.464000
0.002234	15.600000	0.448000
0.002236	15.600000	0.448000
0.002238	15.200000	0.440000
0.002240	14.800000	0.432000
0.002242	14.400000	0.432000
0.002244	14.400000	0.424000
0.002246	14.000000	0.424000
0.002248	14.000000	0.408000
0.002250	13.600000	0.416000
0.002252	13.600000	0.400000
0.002254	13.200000	0.392000
0.002256	12.800000	0.400000
0.002258	12.800000	0.384000
0.002260	12.400000	0.392000
0.002262	12.400000	0.368000
0.002264	12.000000	0.368000
0.002266	12.000000	0.352000
0.002268	11.600000	0.352000
0.002270	11.200000	0.336000
0.002272	11.200000	0.344000
0.002274	10.800000	0.328000
0.002276	10.800000	0.336000
0.002278	10.400000	0.312000
0.002280	10.000000	0.328000
0.002282	10.000000	0.304000
0.002284	9.600000	0.320000
0.002286	9.600000	0.296000
0.002288	9.200000	0.296000
0.002290	9.200000	0.280000
0.002292	8.800000	0.280000
0.002294	8.400000	0.280000
0.002296	8.400000	0.272000
0.002298	8.000000	0.248000
0.002300	7.600000	0.248000
0.002302	7.600000	0.240000
0.002304	7.200000	0.248000
0.002306	7.200000	0.224000
0.002308	6.800000	0.240000
0.002310	6.400000	0.224000
0.002312	6.400000	0.200000
0.002314	6.000000	0.224000
0.002316	6.000000	0.208000
0.002318	5.600000	0.208000
0.002320	5.200000	0.192000
0.002322	5.200000	0.192000
0.002324	4.800000	0.184000
0.002326	4.800000	0.176000
0.002328	4.400000	0.160000
0.002330	4.400000	0.168000
0.002332	4.000000	0.152000
0.002334	3.600000	0.144000
0.002336	3.600000	0.152000
0.002338	3.200000	0.144000
0.002340	3.200000	0.120000
0.002342	2.800000	0.128000
0.002344	2.400000	0.112000
0.002346	2.400000	0.120000
0.002348	2.000000	0.104000
0.002350	1.600000	0.104000
0.002352	1.600000	0.088000
0.002354	1.200000	0.088000
0.002356	1.200000	0.080000
0.002358	0.800000	0.072000
0.002360	0.400000	0.064000
0.002362	0.400000	0.064000
0.002364	0.000000	0.048000
0.002366	0.000000	0.048000
0.002368	-0.400000	0.056000
0.002370	-0.400000	0.032000
0.002372	-0.800000	0.024000
0.002374	-0.800000	0.032000
0.002376	-1.200000	0.024000
0.002378	-1.600000	0.000000
0.002380	-1.600000	0.000000
0.002382	-2.000000	-0.008000
0.002384	-2.000000	-0.008000
0.002386	-2.400000	-0.016000
0.002388	-2.800000	-0.024000
0.002390	-2.800000	-0.040000
0.002392	-3.200000	-0.048000
0.002394	-3.600000	-0.056000
0.002396	-3.600000	-0.056000
0.002398	-4.000000	-0.064000
0.002400	-4.400000	-0.064000
0.002402	-4.400000	-0.072000
0.002404	-4.800000	-0.080000
0.002406	-4.800000	-0.088000
0.002408	-5.200000	-0.096000
0.002410	-5.600000	-0.096000
0.002412	-5.600000	-0.112000
0.002414	-6.000000	-0.112000
0.002416	-6.000000	-0.120000
0.002418	-6.400000	-0.128000
0.002420	-6.400000	-0.136000
0.002422	-6.800000	-0.128000
0.002424	-6.800000	-0.152000
0.002426	-7.200000	-0.160000
0.002428	-7.600000	-0.160000
0.002430	-7.600000	-0.168000
0.002432	-8.000000	-0.176000
0.002434	-8.400000	-0.176000
0.002436	-8.400000	-0.184000
0.002438	-8.800000	-0.200000
0.002440	-8.800000	-0.200000
0.002442	-9.200000	-0.208000
0.002444	-9.600000	-0.216000
0.002446	-9.600000	-0.224000
0.002448	-10.000000	-0.232000
0.002450	-10.400000	-0.232000
0.002452	-10.400000	-0.240000
0.002454	-10.800000	-0.248000
0.002456	-10.800000	-0.256000
0.002458	-11.200000	-0.256000
0.002460	-11.200000	-0.264000
0.002462	-11.600000	-0.272000
0.002464	-12.000000	-0.280000
0.002466	-12.000000	-0.288000
0.002468	-12.400000	-0.288000
0.002470	-12.800000	-0.296000
0.002472	-12.800000	-0.304000
0.002474	-13.200000	-0.312000
0.002476	-13.200000	-0.320000
0.002478	-13.600000	-0.328000
0.002480	-13.600000	-0.328000
0.002482	-14.000000	-0.336000
0.002484	-14.400000	-0.344000
0.002486	-14.400000	-0.352000
0.002488	-14.800000	-0.360000
0.002490	-14.800000	-0.360000
0.002492	-15.200000	-0.368000
0.002494	-15.200000	-0.376000
0.002496	-15.600000	-0.384000
0.002498	-16.000000	-0.392000

