LabVIEW Measurement	
Writer_Version	2
Reader_Version	2
Separator	Tab
Decimal_Separator	.
Multi_Headings	Yes
X_Columns	No
Time_Pref	Relative
Operator	e014
Date	2015/07/21
Time	13:11:06.6766610145568847656
***End_of_Header***	
	
Channels	2		
Samples	2500	2500	
Date	2015/07/21	2015/07/21	
Time	13:11:06.6766610145568847656	13:11:06.6766610145568847656	
X_Dimension	Time	Time	
X0	-1.2500000000000000E-3	-1.2500000000000000E-3	
Delta_X	1.000000E-6	1.000000E-6	
***End_of_Header***			
X_Value	Untitled	Untitled 1	Comment
	-18.800000	-0.042800
	-18.800000	-0.042400
	-18.600000	-0.042400
	-18.600000	-0.042400
	-18.600000	-0.042000
	-18.400000	-0.041600
	-18.400000	-0.041200
	-18.400000	-0.041600
	-18.200000	-0.041200
	-18.200000	-0.040800
	-18.000000	-0.040800
	-18.000000	-0.040800
	-17.800000	-0.040800
	-17.800000	-0.040000
	-17.600000	-0.040000
	-17.600000	-0.040000
	-17.600000	-0.040000
	-17.400000	-0.039200
	-17.400000	-0.039200
	-17.200000	-0.039200
	-17.200000	-0.039200
	-17.200000	-0.038800
	-17.000000	-0.038400
	-17.000000	-0.038400
	-17.000000	-0.038000
	-17.000000	-0.038000
	-16.800000	-0.037600
	-16.800000	-0.038000
	-16.600000	-0.037600
	-16.600000	-0.037200
	-16.400000	-0.037200
	-16.400000	-0.037200
	-16.400000	-0.036800
	-16.200000	-0.036400
	-16.200000	-0.036800
	-16.200000	-0.036400
	-16.000000	-0.036000
	-16.000000	-0.035600
	-15.800000	-0.036000
	-15.800000	-0.036000
	-15.600000	-0.035200
	-15.600000	-0.034800
	-15.600000	-0.035200
	-15.400000	-0.034800
	-15.400000	-0.034400
	-15.200000	-0.034000
	-15.200000	-0.034400
	-15.200000	-0.034000
	-15.000000	-0.033600
	-15.000000	-0.033600
	-15.000000	-0.033600
	-14.800000	-0.033200
	-14.800000	-0.032800
	-14.600000	-0.032800
	-14.600000	-0.032800
	-14.400000	-0.032800
	-14.400000	-0.032000
	-14.400000	-0.032400
	-14.200000	-0.032000
	-14.200000	-0.031600
	-14.000000	-0.031200
	-14.000000	-0.031200
	-14.000000	-0.031200
	-13.800000	-0.030800
	-13.600000	-0.030400
	-13.600000	-0.030800
	-13.600000	-0.030400
	-13.400000	-0.030000
	-13.400000	-0.030000
	-13.200000	-0.029600
	-13.200000	-0.029600
	-13.200000	-0.029600
	-13.000000	-0.029200
	-13.000000	-0.029200
	-13.000000	-0.029200
	-12.800000	-0.028800
	-12.800000	-0.028400
	-12.600000	-0.028800
	-12.600000	-0.028400
	-12.400000	-0.028000
	-12.400000	-0.028000
	-12.400000	-0.027600
	-12.200000	-0.027600
	-12.200000	-0.027200
	-12.000000	-0.027200
	-12.000000	-0.026800
	-11.800000	-0.026800
	-11.800000	-0.026400
	-11.800000	-0.026000
	-11.600000	-0.026400
	-11.600000	-0.025600
	-11.600000	-0.025600
	-11.400000	-0.025600
	-11.400000	-0.025200
	-11.200000	-0.025200
	-11.200000	-0.024800
	-11.000000	-0.024800
	-11.000000	-0.024800
	-11.000000	-0.024800
	-10.800000	-0.024000
	-10.800000	-0.024400
	-10.800000	-0.024000
	-10.600000	-0.023600
	-10.600000	-0.023600
	-10.400000	-0.023200
	-10.400000	-0.023200
	-10.400000	-0.022800
	-10.200000	-0.022800
	-10.200000	-0.022400
	-10.000000	-0.022800
	-10.000000	-0.022000
	-10.000000	-0.022000
	-9.800000	-0.022000
	-9.800000	-0.021600
	-9.600000	-0.021200
	-9.600000	-0.021200
	-9.400000	-0.021200
	-9.400000	-0.020800
	-9.400000	-0.020800
	-9.200000	-0.020400
	-9.200000	-0.020400
	-9.000000	-0.020400
	-9.000000	-0.019600
	-9.000000	-0.020000
	-8.800000	-0.019600
	-8.800000	-0.019600
	-8.800000	-0.019200
	-8.600000	-0.018800
	-8.600000	-0.019200
	-8.400000	-0.018400
	-8.400000	-0.018400
	-8.200000	-0.018000
	-8.200000	-0.018400
	-8.200000	-0.017600
	-8.000000	-0.017600
	-8.000000	-0.017200
	-7.800000	-0.017600
	-7.800000	-0.017200
	-7.600000	-0.016400
	-7.600000	-0.017200
	-7.600000	-0.016800
	-7.400000	-0.016400
	-7.400000	-0.016000
	-7.200000	-0.016000
	-7.200000	-0.016000
	-7.200000	-0.015600
	-7.000000	-0.015200
	-7.000000	-0.015200
	-7.000000	-0.015200
	-6.800000	-0.014800
	-6.800000	-0.014800
	-6.600000	-0.014400
	-6.600000	-0.014400
	-6.400000	-0.014000
	-6.400000	-0.013600
	-6.200000	-0.014000
	-6.200000	-0.013600
	-6.200000	-0.013600
	-6.000000	-0.013200
	-6.000000	-0.013200
	-5.800000	-0.012800
	-5.800000	-0.012400
	-5.800000	-0.012400
	-5.600000	-0.012400
	-5.600000	-0.012400
	-5.400000	-0.011600
	-5.400000	-0.011600
	-5.200000	-0.011600
	-5.200000	-0.011600
	-5.200000	-0.010800
	-5.000000	-0.010800
	-5.000000	-0.010800
	-5.000000	-0.010400
	-4.800000	-0.010400
	-4.800000	-0.010000
	-4.600000	-0.010400
	-4.600000	-0.009600
	-4.400000	-0.009200
	-4.400000	-0.009600
	-4.400000	-0.009200
	-4.200000	-0.009200
	-4.200000	-0.008800
	-4.000000	-0.008800
	-4.000000	-0.008400
	-4.000000	-0.008400
	-3.800000	-0.008000
	-3.800000	-0.008000
	-3.600000	-0.008000
	-3.600000	-0.007600
	-3.400000	-0.007600
	-3.400000	-0.007200
	-3.400000	-0.007200
	-3.200000	-0.006800
	-3.200000	-0.006800
	-3.000000	-0.006400
	-3.000000	-0.006400
	-3.000000	-0.006000
	-2.800000	-0.005600
	-2.800000	-0.005600
	-2.600000	-0.005200
	-2.600000	-0.005200
	-2.600000	-0.004800
	-2.400000	-0.005200
	-2.400000	-0.004800
	-2.200000	-0.004400
	-2.200000	-0.004400
	-2.200000	-0.004000
	-2.000000	-0.004000
	-2.000000	-0.003600
	-1.800000	-0.003600
	-1.800000	-0.003200
	-1.800000	-0.003200
	-1.600000	-0.002800
	-1.600000	-0.002800
	-1.400000	-0.002800
	-1.400000	-0.002000
	-1.200000	-0.002400
	-1.200000	-0.001600
	-1.000000	-0.002000
	-1.000000	-0.001600
	-1.000000	-0.001200
	-0.800000	-0.001200
	-0.800000	-0.001200
	-0.600000	-0.000800
	-0.600000	-0.000400
	-0.600000	-0.000400
	-0.400000	0.000000
	-0.400000	0.000000
	-0.200000	0.000400
	-0.200000	0.000400
	-0.200000	0.000400
	0.000000	0.000800
	0.000000	0.000400
	0.200000	0.000800
	0.200000	0.000800
	0.200000	0.001200
	0.400000	0.001600
	0.400000	0.001600
	0.600000	0.002000
	0.600000	0.002000
	0.800000	0.002400
	0.800000	0.002400
	1.000000	0.002800
	1.000000	0.003200
	1.000000	0.003200
	1.200000	0.003200
	1.200000	0.003200
	1.400000	0.004000
	1.400000	0.003600
	1.400000	0.004000
	1.600000	0.004000
	1.600000	0.004800
	1.800000	0.004400
	1.800000	0.004400
	1.800000	0.005200
	2.000000	0.005200
	2.000000	0.005200
	2.200000	0.005200
	2.200000	0.006000
	2.400000	0.006000
	2.400000	0.006000
	2.400000	0.006000
	2.600000	0.006400
	2.600000	0.006800
	2.800000	0.006800
	2.800000	0.007200
	2.800000	0.007200
	3.000000	0.007600
	3.000000	0.007200
	3.000000	0.007600
	3.200000	0.008000
	3.200000	0.008400
	3.400000	0.008400
	3.400000	0.008400
	3.600000	0.008800
	3.600000	0.008400
	3.600000	0.008800
	3.800000	0.009200
	3.800000	0.009600
	4.000000	0.009600
	4.000000	0.009600
	4.200000	0.010000
	4.200000	0.010000
	4.200000	0.010400
	4.400000	0.010400
	4.400000	0.010800
	4.600000	0.011200
	4.600000	0.011200
	4.600000	0.011200
	4.800000	0.011200
	4.800000	0.012000
	4.800000	0.011600
	5.000000	0.012000
	5.000000	0.012000
	5.200000	0.012400
	5.200000	0.012400
	5.200000	0.012400
	5.400000	0.013200
	5.400000	0.013200
	5.600000	0.013200
	5.600000	0.013200
	5.800000	0.014000
	5.800000	0.013600
	5.800000	0.014000
	6.000000	0.014400
	6.000000	0.014400
	6.200000	0.014800
	6.200000	0.014400
	6.200000	0.015200
	6.400000	0.015200
	6.400000	0.015200
	6.600000	0.015200
	6.600000	0.015600
	6.600000	0.016000
	6.800000	0.016000
	6.800000	0.016400
	7.000000	0.016400
	7.000000	0.016800
	7.000000	0.016800
	7.200000	0.017200
	7.200000	0.017200
	7.400000	0.017600
	7.400000	0.017600
	7.400000	0.017600
	7.600000	0.018000
	7.600000	0.018000
	7.800000	0.018400
	7.800000	0.018400
	7.800000	0.018800
	8.000000	0.018800
	8.200000	0.018800
	8.200000	0.019200
	8.400000	0.019200
	8.400000	0.019600
	8.400000	0.019600
	8.600000	0.020000
	8.600000	0.020400
	8.800000	0.020400
	8.800000	0.020800
	8.800000	0.020800
	9.000000	0.020800
	9.000000	0.020800
	9.000000	0.021200
	9.200000	0.021200
	9.200000	0.021600
	9.400000	0.022000
	9.400000	0.022000
	9.600000	0.022400
	9.600000	0.022400
	9.600000	0.022800
	9.800000	0.022400
	9.800000	0.023200
	9.800000	0.023200
	10.000000	0.023200
	10.000000	0.023200
	10.200000	0.023600
	10.200000	0.024000
	10.200000	0.024000
	10.400000	0.024400
	10.400000	0.024400
	10.600000	0.024800
	10.600000	0.024800
	10.800000	0.025200
	10.800000	0.025200
	10.800000	0.025200
	11.000000	0.025600
	11.000000	0.025600
	11.200000	0.026000
	11.200000	0.026000
	11.200000	0.026000
	11.400000	0.026400
	11.400000	0.026400
	11.600000	0.026800
	11.600000	0.026800
	11.600000	0.027200
	11.800000	0.027200
	11.800000	0.027600
	12.000000	0.027600
	12.000000	0.027600
	12.200000	0.028000
	12.200000	0.028000
	12.200000	0.028400
	12.400000	0.028400
	12.400000	0.028800
	12.600000	0.028800
	12.600000	0.029200
	12.600000	0.029200
	12.800000	0.029200
	12.800000	0.029600
	12.800000	0.029600
	13.000000	0.030000
	13.000000	0.030000
	13.200000	0.030000
	13.200000	0.030400
	13.200000	0.030800
	13.400000	0.030800
	13.400000	0.031200
	13.600000	0.031200
	13.600000	0.031200
	13.600000	0.031600
	13.800000	0.031600
	13.800000	0.032000
	14.000000	0.032000
	14.000000	0.032400
	14.200000	0.032800
	14.200000	0.032800
	14.200000	0.033200
	14.400000	0.033200
	14.400000	0.033200
	14.400000	0.033200
	14.600000	0.033600
	14.600000	0.034000
	14.600000	0.034000
	14.800000	0.034400
	14.800000	0.034400
	15.000000	0.034400
	15.000000	0.034400
	15.000000	0.035200
	15.200000	0.034800
	15.200000	0.035200
	15.400000	0.035600
	15.400000	0.035600
	15.600000	0.036000
	15.600000	0.035600
	15.800000	0.036000
	15.800000	0.036400
	15.800000	0.036400
	16.000000	0.036400
	16.000000	0.036800
	16.200000	0.037200
	16.200000	0.037200
	16.200000	0.037600
	16.400000	0.037600
	16.400000	0.038000
	16.400000	0.038000
	16.600000	0.038400
	16.600000	0.038400
	16.800000	0.038400
	16.800000	0.038800
	16.800000	0.038800
	17.000000	0.039200
	17.000000	0.039200
	17.200000	0.039600
	17.200000	0.039600
	17.200000	0.039600
	17.400000	0.040000
	17.400000	0.040400
	17.600000	0.040400
	17.600000	0.040400
	17.800000	0.040800
	17.800000	0.040800
	17.800000	0.041200
	18.000000	0.041200
	18.000000	0.041600
	18.200000	0.041600
	18.200000	0.041600
	18.200000	0.042000
	18.400000	0.042000
	18.400000	0.042400
	18.400000	0.042400
	18.600000	0.042800
	18.600000	0.042800
	18.800000	0.043200
	18.800000	0.043200
	19.000000	0.043200
	19.000000	0.043600
	19.000000	0.043600
	19.200000	0.044000
	19.200000	0.044400
	19.400000	0.044400
	19.400000	0.044400
	19.400000	0.044800
	19.600000	0.044800
	19.600000	0.045200
	19.800000	0.045200
	19.800000	0.045200
	19.800000	0.045600
	20.000000	0.046000
	20.000000	0.046000
	20.200000	0.046400
	20.200000	0.046400
	20.200000	0.046400
	20.000000	0.046000
	20.000000	0.046000
	20.000000	0.045600
	19.800000	0.045200
	19.800000	0.045200
	19.600000	0.044800
	19.600000	0.044800
	19.600000	0.044400
	19.400000	0.044400
	19.400000	0.044400
	19.200000	0.044000
	19.200000	0.043600
	19.000000	0.043600
	19.000000	0.043600
	19.000000	0.043200
	18.800000	0.043200
	18.800000	0.042800
	18.600000	0.042800
	18.600000	0.042400
	18.600000	0.042400
	18.400000	0.042000
	18.400000	0.041600
	18.400000	0.041600
	18.200000	0.041600
	18.200000	0.041600
	18.000000	0.041200
	18.000000	0.041200
	17.800000	0.040800
	17.800000	0.040800
	17.800000	0.040400
	17.600000	0.040400
	17.600000	0.040400
	17.400000	0.040000
	17.400000	0.039600
	17.400000	0.039600
	17.200000	0.039200
	17.200000	0.039200
	17.000000	0.038800
	17.000000	0.038800
	17.000000	0.038400
	16.800000	0.038400
	16.800000	0.038000
	16.600000	0.038000
	16.600000	0.037600
	16.400000	0.037600
	16.400000	0.037600
	16.400000	0.037200
	16.200000	0.036800
	16.200000	0.036800
	16.200000	0.036800
	16.000000	0.036400
	16.000000	0.036400
	15.800000	0.036400
	15.800000	0.036000
	15.800000	0.036000
	15.600000	0.035600
	15.600000	0.035600
	15.400000	0.035200
	15.400000	0.035200
	15.400000	0.034800
	15.200000	0.034800
	15.000000	0.034400
	15.000000	0.034400
	15.000000	0.034000
	14.800000	0.034000
	14.800000	0.033600
	14.600000	0.033600
	14.600000	0.033200
	14.600000	0.033200
	14.400000	0.033200
	14.400000	0.032800
	14.400000	0.032400
	14.200000	0.032400
	14.200000	0.032400
	14.200000	0.032000
	14.000000	0.032000
	14.000000	0.031600
	13.800000	0.031600
	13.800000	0.031200
	13.800000	0.031200
	13.600000	0.031200
	13.600000	0.030800
	13.400000	0.030400
	13.400000	0.030400
	13.400000	0.030000
	13.200000	0.030000
	13.200000	0.029600
	13.000000	0.029600
	13.000000	0.029600
	12.800000	0.029200
	12.800000	0.029200
	12.800000	0.028800
	12.600000	0.028800
	12.600000	0.028400
	12.600000	0.028400
	12.400000	0.028400
	12.400000	0.028000
	12.200000	0.028000
	12.200000	0.027600
	12.200000	0.027600
	12.000000	0.027200
	12.000000	0.027200
	11.800000	0.026800
	11.800000	0.026800
	11.800000	0.026400
	11.600000	0.026400
	11.600000	0.026000
	11.400000	0.026000
	11.400000	0.025600
	11.200000	0.025600
	11.200000	0.025600
	11.200000	0.025600
	11.000000	0.025200
	11.000000	0.025200
	10.800000	0.024800
	10.800000	0.024800
	10.800000	0.024400
	10.600000	0.024400
	10.600000	0.024000
	10.600000	0.024000
	10.400000	0.023600
	10.400000	0.023600
	10.200000	0.023200
	10.200000	0.023200
	10.000000	0.022800
	10.000000	0.022800
	10.000000	0.022400
	9.800000	0.022400
	9.800000	0.022000
	9.600000	0.022000
	9.600000	0.021600
	9.600000	0.021600
	9.400000	0.021200
	9.400000	0.021200
	9.200000	0.021200
	9.200000	0.020800
	9.000000	0.020800
	9.000000	0.020400
	9.000000	0.020400
	8.800000	0.020000
	8.800000	0.020000
	8.800000	0.019600
	8.600000	0.019600
	8.600000	0.019200
	8.600000	0.019200
	8.400000	0.018800
	8.400000	0.018800
	8.200000	0.018800
	8.200000	0.018400
	8.000000	0.018400
	8.000000	0.018000
	7.800000	0.017600
	7.800000	0.017600
	7.600000	0.017600
	7.600000	0.017200
	7.600000	0.017200
	7.400000	0.016800
	7.400000	0.016800
	7.200000	0.016800
	7.200000	0.016400
	7.000000	0.016000
	7.000000	0.016000
	7.000000	0.015600
	6.800000	0.015600
	6.800000	0.015200
	6.800000	0.015200
	6.600000	0.015200
	6.600000	0.014800
	6.400000	0.014400
	6.400000	0.014400
	6.200000	0.014000
	6.200000	0.014000
	6.200000	0.014000
	6.000000	0.013600
	6.000000	0.013600
	5.800000	0.013200
	5.800000	0.013200
	5.800000	0.012800
	5.600000	0.012400
	5.600000	0.012800
	5.400000	0.012400
	5.400000	0.012000
	5.400000	0.012000
	5.200000	0.012000
	5.200000	0.011600
	5.000000	0.011600
	5.000000	0.011200
	4.800000	0.011200
	4.800000	0.011200
	4.800000	0.010800
	4.600000	0.010400
	4.600000	0.010000
	4.600000	0.010000
	4.400000	0.010000
	4.400000	0.009600
	4.200000	0.009600
	4.200000	0.009200
	4.200000	0.009200
	4.000000	0.009200
	4.000000	0.008800
	3.800000	0.008800
	3.800000	0.008400
	3.600000	0.008400
	3.600000	0.008400
	3.600000	0.008000
	3.400000	0.007600
	3.400000	0.007600
	3.200000	0.007200
	3.200000	0.007200
	3.200000	0.006800
	3.000000	0.006800
	3.000000	0.006800
	2.800000	0.006400
	2.800000	0.006000
	2.800000	0.006000
	2.600000	0.005600
	2.600000	0.005600
	2.400000	0.005600
	2.400000	0.005600
	2.200000	0.005200
	2.200000	0.004800
	2.200000	0.004800
	2.000000	0.004400
	2.000000	0.004400
	2.000000	0.004000
	1.800000	0.004000
	1.800000	0.004000
	1.600000	0.003200
	1.600000	0.003600
	1.400000	0.003200
	1.400000	0.002800
	1.400000	0.002800
	1.200000	0.002400
	1.200000	0.002400
	1.000000	0.002400
	1.000000	0.002000
	1.000000	0.002000
	0.800000	0.001600
	0.800000	0.001600
	0.600000	0.001200
	0.600000	0.001200
	0.400000	0.000800
	0.400000	0.000800
	0.400000	0.000400
	0.200000	0.000400
	0.200000	0.000400
	0.000000	0.000000
	0.000000	0.000000
	-0.200000	-0.000400
	-0.200000	-0.000400
	-0.200000	-0.000400
	-0.400000	-0.000800
	-0.400000	-0.001200
	-0.600000	-0.000800
	-0.600000	-0.001200
	-0.600000	-0.001600
	-0.800000	-0.001600
	-0.800000	-0.002000
	-1.000000	-0.002000
	-1.000000	-0.002400
	-1.000000	-0.002400
	-1.200000	-0.002400
	-1.200000	-0.002800
	-1.400000	-0.003200
	-1.400000	-0.003200
	-1.600000	-0.003600
	-1.600000	-0.003600
	-1.800000	-0.004000
	-1.800000	-0.004000
	-1.800000	-0.004400
	-2.000000	-0.004400
	-2.000000	-0.004400
	-2.000000	-0.004800
	-2.200000	-0.005200
	-2.200000	-0.005200
	-2.400000	-0.005600
	-2.400000	-0.005600
	-2.600000	-0.005600
	-2.600000	-0.006000
	-2.600000	-0.006400
	-2.800000	-0.006400
	-2.800000	-0.006400
	-3.000000	-0.006800
	-3.000000	-0.007200
	-3.000000	-0.007200
	-3.200000	-0.007200
	-3.200000	-0.007600
	-3.200000	-0.007600
	-3.400000	-0.008000
	-3.400000	-0.008000
	-3.600000	-0.008400
	-3.600000	-0.008400
	-3.800000	-0.008800
	-3.800000	-0.008800
	-3.800000	-0.008800
	-4.000000	-0.009200
	-4.000000	-0.009200
	-4.200000	-0.009600
	-4.200000	-0.009600
	-4.200000	-0.010000
	-4.400000	-0.010000
	-4.400000	-0.010400
	-4.600000	-0.010800
	-4.600000	-0.010800
	-4.800000	-0.010800
	-4.800000	-0.010800
	-4.800000	-0.011200
	-5.000000	-0.011600
	-5.000000	-0.011600
	-5.000000	-0.012000
	-5.200000	-0.012000
	-5.200000	-0.012000
	-5.400000	-0.012400
	-5.400000	-0.012400
	-5.600000	-0.012800
	-5.600000	-0.012800
	-5.600000	-0.012800
	-5.800000	-0.013200
	-5.800000	-0.013600
	-6.000000	-0.013600
	-6.000000	-0.014000
	-6.000000	-0.014000
	-6.200000	-0.014000
	-6.200000	-0.014400
	-6.400000	-0.014800
	-6.400000	-0.014800
	-6.600000	-0.014800
	-6.600000	-0.015200
	-6.800000	-0.015200
	-6.800000	-0.015600
	-7.000000	-0.015600
	-7.000000	-0.016000
	-7.000000	-0.016000
	-7.200000	-0.016400
	-7.200000	-0.016400
	-7.200000	-0.016800
	-7.400000	-0.016800
	-7.400000	-0.016800
	-7.600000	-0.017200
	-7.600000	-0.017200
	-7.800000	-0.017600
	-7.800000	-0.017600
	-7.800000	-0.018000
	-8.000000	-0.018000
	-8.000000	-0.018400
	-8.200000	-0.018800
	-8.200000	-0.018800
	-8.200000	-0.018800
	-8.400000	-0.019200
	-8.400000	-0.019200
	-8.600000	-0.019600
	-8.600000	-0.019600
	-8.600000	-0.020000
	-8.800000	-0.020000
	-8.800000	-0.020400
	-9.000000	-0.020400
	-9.000000	-0.020800
	-9.000000	-0.020800
	-9.200000	-0.020800
	-9.200000	-0.021200
	-9.200000	-0.021200
	-9.400000	-0.021200
	-9.400000	-0.021600
	-9.600000	-0.022000
	-9.600000	-0.022000
	-9.800000	-0.022400
	-9.800000	-0.022400
	-9.800000	-0.022400
	-10.000000	-0.022800
	-10.000000	-0.022800
	-10.200000	-0.023200
	-10.200000	-0.023200
	-10.200000	-0.023600
	-10.400000	-0.023600
	-10.400000	-0.024000
	-10.600000	-0.024000
	-10.600000	-0.024400
	-10.800000	-0.024400
	-10.800000	-0.024400
	-10.800000	-0.024800
	-11.000000	-0.025200
	-11.000000	-0.025200
	-11.000000	-0.025600
	-11.200000	-0.025600
	-11.200000	-0.026000
	-11.400000	-0.026000
	-11.400000	-0.026400
	-11.600000	-0.026400
	-11.600000	-0.026400
	-11.600000	-0.026800
	-11.800000	-0.026800
	-11.800000	-0.026800
	-12.000000	-0.027200
	-12.000000	-0.027600
	-12.000000	-0.027600
	-12.200000	-0.028000
	-12.200000	-0.028000
	-12.400000	-0.028400
	-12.400000	-0.028400
	-12.400000	-0.028400
	-12.600000	-0.028800
	-12.600000	-0.028800
	-12.800000	-0.029200
	-12.800000	-0.029200
	-12.800000	-0.029200
	-13.000000	-0.029600
	-13.000000	-0.029600
	-13.200000	-0.030000
	-13.200000	-0.030000
	-13.200000	-0.030400
	-13.400000	-0.030800
	-13.400000	-0.030800
	-13.600000	-0.030800
	-13.600000	-0.031200
	-13.600000	-0.031200
	-13.800000	-0.031600
	-13.800000	-0.031600
	-14.000000	-0.032000
	-14.000000	-0.032000
	-14.200000	-0.032400
	-14.200000	-0.032400
	-14.400000	-0.032400
	-14.400000	-0.032800
	-14.400000	-0.032800
	-14.600000	-0.033200
	-14.600000	-0.033200
	-14.800000	-0.033200
	-14.800000	-0.033600
	-15.000000	-0.033600
	-15.000000	-0.034000
	-15.000000	-0.034400
	-15.000000	-0.034400
	-15.200000	-0.034800
	-15.200000	-0.034800
	-15.400000	-0.035200
	-15.400000	-0.035200
	-15.600000	-0.035200
	-15.600000	-0.035600
	-15.600000	-0.035600
	-15.800000	-0.036000
	-15.800000	-0.036000
	-16.000000	-0.036400
	-16.000000	-0.036400
	-16.000000	-0.036800
	-16.200000	-0.036800
	-16.200000	-0.036800
	-16.400000	-0.037200
	-16.400000	-0.037200
	-16.400000	-0.038000
	-16.600000	-0.037600
	-16.600000	-0.037600
	-16.800000	-0.038000
	-16.800000	-0.038400
	-16.800000	-0.038400
	-17.000000	-0.038400
	-17.000000	-0.038800
	-17.000000	-0.038800
	-17.200000	-0.039200
	-17.200000	-0.039200
	-17.200000	-0.039600
	-17.400000	-0.039600
	-17.400000	-0.040000
	-17.600000	-0.040000
	-17.600000	-0.040400
	-17.600000	-0.040400
	-17.800000	-0.040400
	-17.800000	-0.040800
	-18.000000	-0.040800
	-18.000000	-0.041200
	-18.000000	-0.041600
	-18.200000	-0.041600
	-18.200000	-0.041600
	-18.400000	-0.042000
	-18.400000	-0.042000
	-18.400000	-0.042000
	-18.600000	-0.042400
	-18.600000	-0.042400
	-18.800000	-0.042800
	-18.800000	-0.042800
	-18.800000	-0.043200
	-19.000000	-0.043200
	-19.000000	-0.043200
	-19.200000	-0.043600
	-19.200000	-0.043600
	-19.200000	-0.044000
	-19.400000	-0.044000
	-19.400000	-0.044400
	-19.600000	-0.044400
	-19.600000	-0.044800
	-19.600000	-0.044800
	-19.800000	-0.045200
	-19.800000	-0.045200
	-20.000000	-0.045600
	-20.000000	-0.045600
	-20.000000	-0.046000
	-20.200000	-0.046000
	-20.200000	-0.046400
	-20.400000	-0.046400
	-20.400000	-0.046800
	-20.400000	-0.046800
	-20.200000	-0.046000
	-20.200000	-0.046000
	-20.000000	-0.045600
	-20.000000	-0.045600
	-20.000000	-0.045200
	-19.800000	-0.045200
	-19.800000	-0.044800
	-19.600000	-0.044800
	-19.600000	-0.044800
	-19.600000	-0.044400
	-19.400000	-0.044400
	-19.400000	-0.044400
	-19.400000	-0.044000
	-19.200000	-0.043600
	-19.200000	-0.043600
	-19.000000	-0.043200
	-19.000000	-0.043200
	-18.800000	-0.042800
	-18.800000	-0.042800
	-18.800000	-0.042400
	-18.600000	-0.042400
	-18.600000	-0.042000
	-18.600000	-0.042000
	-18.400000	-0.042000
	-18.400000	-0.041600
	-18.200000	-0.041200
	-18.200000	-0.041200
	-18.200000	-0.041200
	-18.000000	-0.040800
	-18.000000	-0.040400
	-17.800000	-0.040400
	-17.800000	-0.040000
	-17.800000	-0.040000
	-17.600000	-0.040000
	-17.600000	-0.039600
	-17.400000	-0.039600
	-17.400000	-0.039200
	-17.400000	-0.039200
	-17.200000	-0.038800
	-17.200000	-0.038800
	-17.000000	-0.038800
	-17.000000	-0.038400
	-17.000000	-0.038400
	-17.000000	-0.038000
	-16.800000	-0.038000
	-16.800000	-0.038000
	-16.600000	-0.037600
	-16.600000	-0.037600
	-16.400000	-0.037200
	-16.400000	-0.036800
	-16.400000	-0.036800
	-16.200000	-0.036800
	-16.200000	-0.036400
	-16.000000	-0.036400
	-16.000000	-0.036000
	-16.000000	-0.036000
	-15.800000	-0.035600
	-15.800000	-0.035600
	-15.600000	-0.035600
	-15.600000	-0.035200
	-15.600000	-0.035200
	-15.400000	-0.034800
	-15.400000	-0.034400
	-15.200000	-0.034400
	-15.200000	-0.034400
	-15.000000	-0.034000
	-15.000000	-0.034000
	-15.000000	-0.033600
	-15.000000	-0.033600
	-14.800000	-0.033200
	-14.800000	-0.033200
	-14.600000	-0.033200
	-14.600000	-0.032800
	-14.400000	-0.032400
	-14.400000	-0.032400
	-14.400000	-0.032000
	-14.200000	-0.032000
	-14.200000	-0.031600
	-14.000000	-0.031600
	-14.000000	-0.031200
	-14.000000	-0.031200
	-13.800000	-0.031200
	-13.600000	-0.030800
	-13.600000	-0.030800
	-13.600000	-0.030400
	-13.400000	-0.030400
	-13.400000	-0.030000
	-13.200000	-0.029600
	-13.200000	-0.029600
	-13.200000	-0.029600
	-13.000000	-0.029200
	-13.000000	-0.029200
	-13.000000	-0.028800
	-12.800000	-0.028800
	-12.800000	-0.028400
	-12.600000	-0.028400
	-12.600000	-0.028400
	-12.600000	-0.028000
	-12.400000	-0.027600
	-12.400000	-0.027600
	-12.200000	-0.027600
	-12.200000	-0.027200
	-12.000000	-0.027200
	-12.000000	-0.026800
	-12.000000	-0.026400
	-11.800000	-0.026400
	-11.800000	-0.026400
	-11.600000	-0.026000
	-11.600000	-0.026000
	-11.600000	-0.025600
	-11.400000	-0.025600
	-11.400000	-0.025600
	-11.200000	-0.024800
	-11.200000	-0.025200
	-11.000000	-0.024800
	-11.000000	-0.024800
	-11.000000	-0.024800
	-10.800000	-0.024400
	-10.800000	-0.024000
	-10.800000	-0.024000
	-10.600000	-0.023600
	-10.600000	-0.023600
	-10.400000	-0.023200
	-10.400000	-0.023200
	-10.400000	-0.022800
	-10.200000	-0.022800
	-10.200000	-0.022800
	-10.000000	-0.022400
	-10.000000	-0.022000
	-9.800000	-0.022000
	-9.800000	-0.021600
	-9.800000	-0.021600
	-9.600000	-0.021200
	-9.600000	-0.021200
	-9.400000	-0.021200
	-9.400000	-0.020800
	-9.400000	-0.020800
	-9.200000	-0.020400
	-9.200000	-0.020400
	-9.000000	-0.020400
	-9.000000	-0.020000
	-9.000000	-0.020000
	-8.800000	-0.019600
	-8.800000	-0.019200
	-8.800000	-0.019200
	-8.600000	-0.019200
	-8.600000	-0.018800
	-8.400000	-0.018800
	-8.400000	-0.018400
	-8.200000	-0.018000
	-8.200000	-0.018000
	-8.200000	-0.018000
	-8.000000	-0.017600
	-8.000000	-0.017600
	-7.800000	-0.017200
	-7.800000	-0.017200
	-7.800000	-0.016800
	-7.600000	-0.016800
	-7.600000	-0.016800
	-7.400000	-0.016400
	-7.400000	-0.016000
	-7.200000	-0.016000
	-7.200000	-0.015600
	-7.200000	-0.015600
	-7.000000	-0.015600
	-7.000000	-0.015200
	-7.000000	-0.014800
	-6.800000	-0.015200
	-6.800000	-0.014800
	-6.600000	-0.014400
	-6.600000	-0.014400
	-6.400000	-0.014000
	-6.400000	-0.014000
	-6.200000	-0.014000
	-6.200000	-0.013600
	-6.200000	-0.013200
	-6.000000	-0.013200
	-6.000000	-0.012800
	-5.800000	-0.012800
	-5.800000	-0.012800
	-5.600000	-0.012400
	-5.600000	-0.012000
	-5.600000	-0.012000
	-5.400000	-0.012000
	-5.400000	-0.012000
	-5.200000	-0.011600
	-5.200000	-0.011200
	-5.200000	-0.011200
	-5.000000	-0.010800
	-5.000000	-0.010400
	-5.000000	-0.010400
	-4.800000	-0.010400
	-4.800000	-0.010400
	-4.600000	-0.010000
	-4.600000	-0.010000
	-4.400000	-0.009600
	-4.400000	-0.009200
	-4.400000	-0.009200
	-4.200000	-0.009200
	-4.200000	-0.008800
	-4.000000	-0.008800
	-4.000000	-0.008400
	-3.800000	-0.008400
	-3.800000	-0.008000
	-3.800000	-0.008000
	-3.600000	-0.008000
	-3.600000	-0.007600
	-3.400000	-0.007200
	-3.400000	-0.007200
	-3.400000	-0.006800
	-3.200000	-0.006800
	-3.200000	-0.006800
	-3.000000	-0.006800
	-3.000000	-0.006400
	-3.000000	-0.006400
	-2.800000	-0.006000
	-2.800000	-0.005600
	-2.800000	-0.005600
	-2.600000	-0.005200
	-2.600000	-0.005200
	-2.400000	-0.004800
	-2.400000	-0.004400
	-2.200000	-0.004400
	-2.200000	-0.004400
	-2.200000	-0.004000
	-2.000000	-0.004000
	-2.000000	-0.003600
	-1.800000	-0.003600
	-1.800000	-0.003200
	-1.800000	-0.003200
	-1.600000	-0.002800
	-1.600000	-0.002800
	-1.400000	-0.002800
	-1.400000	-0.002400
	-1.200000	-0.002000
	-1.200000	-0.002000
	-1.200000	-0.002000
	-1.000000	-0.001600
	-1.000000	-0.001200
	-0.800000	-0.001200
	-0.800000	-0.001200
	-0.600000	-0.000800
	-0.600000	-0.000800
	-0.600000	-0.000400
	-0.400000	-0.000400
	-0.400000	0.000000
	-0.200000	0.000000
	-0.200000	0.000400
	0.000000	0.000400
	0.000000	0.000400
	0.000000	0.000800
	0.200000	0.000800
	0.200000	0.001200
	0.200000	0.001200
	0.400000	0.001600
	0.400000	0.001600
	0.600000	0.001600
	0.800000	0.002000
	0.800000	0.002400
	0.800000	0.002400
	1.000000	0.002800
	1.000000	0.002800
	1.000000	0.002800
	1.200000	0.003200
	1.200000	0.003600
	1.400000	0.003600
	1.400000	0.004000
	1.400000	0.004000
	1.600000	0.004400
	1.600000	0.004400
	1.600000	0.004800
	1.800000	0.004800
	1.800000	0.004800
	2.000000	0.005200
	2.000000	0.005200
	2.200000	0.005600
	2.200000	0.005600
	2.200000	0.005600
	2.400000	0.006000
	2.400000	0.006000
	2.600000	0.006400
	2.600000	0.006400
	2.800000	0.007200
	2.800000	0.007200
	2.800000	0.007200
	3.000000	0.007600
	3.000000	0.007600
	3.000000	0.008000
	3.200000	0.007600
	3.200000	0.008000
	3.400000	0.008000
	3.400000	0.008400
	3.600000	0.008400
	3.600000	0.008800
	3.600000	0.009200
	3.800000	0.009200
	3.800000	0.009200
	4.000000	0.009600
	4.000000	0.009600
	4.000000	0.009600
	4.200000	0.010400
	4.200000	0.010000
	4.400000	0.010400
	4.400000	0.010400
	4.600000	0.010800
	4.600000	0.011200
	4.600000	0.011200
	4.800000	0.011600
	4.800000	0.011600
	4.800000	0.011600
	5.000000	0.012000
	5.000000	0.012000
	5.200000	0.012400
	5.200000	0.012400
	5.200000	0.012800
	5.400000	0.012800
	5.400000	0.013200
	5.600000	0.013200
	5.600000	0.013600
	5.600000	0.013600
	5.800000	0.013600
	5.800000	0.014000
	6.000000	0.014000
	6.000000	0.014400
	6.200000	0.014400
	6.200000	0.014800
	6.200000	0.015200
	6.400000	0.015200
	6.400000	0.015200
	6.600000	0.015600
	6.600000	0.016000
	6.800000	0.015600
	6.800000	0.016000
	6.800000	0.016400
	6.800000	0.016400
	7.000000	0.016800
	7.000000	0.016800
	7.200000	0.017200
	7.200000	0.017200
	7.400000	0.017600
	7.400000	0.017600
	7.400000	0.018000
	7.600000	0.017600
	7.600000	0.018000
	7.800000	0.018400
	7.800000	0.018400
	8.000000	0.018400
	8.000000	0.018800
	8.200000	0.019200
	8.200000	0.019200
	8.200000	0.019200
	8.400000	0.019600
	8.400000	0.019600
	8.600000	0.020000
	8.600000	0.020000
	8.800000	0.020400
	8.800000	0.020400
	8.800000	0.020800
	9.000000	0.020800
	9.000000	0.021200
	9.000000	0.021200
	9.200000	0.021200
	9.200000	0.021600
	9.400000	0.021600
	9.400000	0.022000
	9.400000	0.022000
	9.600000	0.022400
	9.600000	0.022400
	9.800000	0.022800
	9.800000	0.022800
	10.000000	0.023200
	10.000000	0.023200
	10.000000	0.023200
	10.200000	0.024000
	10.200000	0.023600
	10.400000	0.024000
	10.400000	0.024000
	10.400000	0.024400
	10.600000	0.024800
	10.600000	0.024800
	10.800000	0.025200
	10.800000	0.025200
	10.800000	0.025200
	11.000000	0.025600
	11.000000	0.025600
	11.200000	0.025600
	11.200000	0.026000
	11.200000	0.026400
	11.400000	0.026000
	11.400000	0.026400
	11.600000	0.026800
	11.600000	0.027200
	11.600000	0.027200
	11.800000	0.027200
	11.800000	0.027600
	12.000000	0.027600
	12.000000	0.028000
	12.200000	0.028000
	12.200000	0.028400
	12.200000	0.028000
	12.400000	0.028800
	12.400000	0.028800
	12.600000	0.029200
	12.600000	0.029200
	12.600000	0.029200
	12.800000	0.029600
	12.800000	0.029600
	12.800000	0.029600
	13.000000	0.029600
	13.000000	0.030000
	13.200000	0.030400
	13.200000	0.030400
	13.200000	0.030400
	13.400000	0.030800
	13.400000	0.031200
	13.600000	0.031200
	13.600000	0.031600
	13.600000	0.031600
	13.800000	0.032000
	13.800000	0.032000
	14.000000	0.032000
	14.000000	0.032000
	14.000000	0.032400
	14.200000	0.032800
	14.200000	0.032800
	14.400000	0.033200
	14.400000	0.033200
	14.400000	0.033600
	14.600000	0.033600
	14.600000	0.033600
	14.600000	0.034000
	14.800000	0.034000
	14.800000	0.034400
	15.000000	0.034800
	15.000000	0.034800
	15.000000	0.034800
	15.200000	0.034800
	15.200000	0.035200
	15.400000	0.035600
	15.400000	0.035600
	15.600000	0.035600
	15.600000	0.036000
	15.800000	0.036400
	15.800000	0.036400
	15.800000	0.036400
	16.000000	0.036800
	16.000000	0.036800
	16.200000	0.036800
	16.200000	0.037200
	16.200000	0.037600
	16.400000	0.037600
	16.400000	0.037600
	16.400000	0.037600
	16.600000	0.038400
	16.600000	0.038400
	16.800000	0.038400
	16.800000	0.038800
	16.800000	0.038800
	17.000000	0.039200
	17.000000	0.039200
	17.200000	0.039600
	17.200000	0.039600
	17.200000	0.040000
	17.400000	0.040000
	17.400000	0.040400
	17.600000	0.040000
	17.600000	0.040400
	17.800000	0.040800
	17.800000	0.041200
	17.800000	0.041200
	18.000000	0.041200
	18.000000	0.041600
	18.200000	0.041600
	18.200000	0.042000
	18.200000	0.041600
	18.400000	0.042000
	18.400000	0.042400
	18.400000	0.042400
	18.600000	0.042400
	18.600000	0.042800
	18.800000	0.043200
	18.800000	0.043200
	19.000000	0.043600
	19.000000	0.043600
	19.000000	0.044000
	19.200000	0.044000
	19.200000	0.044000
	19.400000	0.044400
	19.400000	0.044400
	19.400000	0.044800
	19.600000	0.044800
	19.600000	0.045200
	19.800000	0.045200
	19.800000	0.045600
	19.800000	0.045600
	20.000000	0.045600
	20.000000	0.046000
	20.200000	0.046400
	20.200000	0.046400
	20.200000	0.046000
	20.000000	0.046400
	20.000000	0.045600
	19.800000	0.045600
	19.800000	0.045600
	19.800000	0.045200
	19.600000	0.044800
	19.600000	0.044800
	19.400000	0.044800
	19.400000	0.044800
	19.400000	0.044400
	19.200000	0.044000
	19.200000	0.044000
	19.000000	0.043600
	19.000000	0.043200
	19.000000	0.043600
	18.800000	0.043200
	18.800000	0.042800
	18.600000	0.042400
	18.600000	0.042400
	18.600000	0.042400
	18.400000	0.042400
	18.400000	0.042000
	18.400000	0.041600
	18.200000	0.041600
	18.200000	0.041200
	18.000000	0.041200
	18.000000	0.041200
	17.800000	0.040800
	17.800000	0.040800
	17.800000	0.040400
	17.600000	0.040400
	17.600000	0.040000
	17.400000	0.040000
	17.400000	0.039600
	17.400000	0.039600
	17.200000	0.039200
	17.200000	0.039200
	17.000000	0.039200
	17.000000	0.038800
	16.800000	0.038800
	16.800000	0.038400
	16.800000	0.038000
	16.600000	0.038000
	16.600000	0.037600
	16.400000	0.037600
	16.400000	0.037200
	16.400000	0.037200
	16.400000	0.037200
	16.200000	0.036800
	16.200000	0.036800
	16.000000	0.036800
	16.000000	0.036400
	15.800000	0.036000
	15.800000	0.036000
	15.800000	0.035600
	15.600000	0.035600
	15.600000	0.035200
	15.400000	0.035200
	15.400000	0.035200
	15.400000	0.034800
	15.200000	0.034800
	15.000000	0.034400
	15.000000	0.034400
	15.000000	0.034000
	14.800000	0.034000
	14.800000	0.033600
	14.600000	0.033600
	14.600000	0.033200
	14.600000	0.033200
	14.400000	0.033200
	14.400000	0.032800
	14.400000	0.032800
	14.200000	0.032400
	14.200000	0.032000
	14.200000	0.032000
	14.000000	0.031600
	14.000000	0.031600
	13.800000	0.031600
	13.800000	0.031600
	13.800000	0.031200
	13.600000	0.030800
	13.600000	0.030800
	13.400000	0.030800
	13.400000	0.030400
	13.200000	0.030000
	13.200000	0.030000
	13.200000	0.030000
	13.000000	0.029600
	13.000000	0.029200
	12.800000	0.029600
	12.800000	0.029200
	12.800000	0.028800
	12.800000	0.028800
	12.600000	0.028400
	12.600000	0.028400
	12.400000	0.028000
	12.400000	0.028000
	12.200000	0.028000
	12.200000	0.028000
	12.200000	0.027200
	12.000000	0.027200
	12.000000	0.027200
	11.800000	0.026800
	11.800000	0.026800
	11.800000	0.026400
	11.600000	0.026400
	11.600000	0.026000
	11.400000	0.026000
	11.400000	0.026000
	11.200000	0.025600
	11.200000	0.025200
	11.200000	0.025200
	11.000000	0.024800
	11.000000	0.024800
	10.800000	0.024400
	10.800000	0.024400
	10.800000	0.024400
	10.600000	0.024400
	10.600000	0.024000
	10.600000	0.023600
	10.400000	0.023600
	10.400000	0.023600
	10.200000	0.023200
	10.200000	0.023200
	10.000000	0.022800
	10.000000	0.022800
	10.000000	0.022400
	9.800000	0.022000
	9.800000	0.022000
	9.600000	0.022000
	9.600000	0.021600
	9.600000	0.021600
	9.400000	0.021600
	9.400000	0.020800
	9.200000	0.020800
	9.200000	0.020800
	9.200000	0.020800
	9.000000	0.020800
	9.000000	0.020000
	8.800000	0.020000
	8.800000	0.020000
	8.800000	0.019600
	8.600000	0.019600
	8.600000	0.019600
	8.400000	0.019200
	8.400000	0.018800
	8.400000	0.018800
	8.200000	0.018400
	8.200000	0.018400
	8.000000	0.018000
	8.000000	0.018000
	7.800000	0.017600
	7.800000	0.017600
	7.600000	0.017600
	7.600000	0.017200
	7.600000	0.017200
	7.400000	0.016800
	7.400000	0.016800
	7.200000	0.016400
	7.200000	0.016400
	7.000000	0.016400
	7.000000	0.016000
	7.000000	0.015600
	6.800000	0.015600
	6.800000	0.015600
	6.800000	0.015200
	6.600000	0.015200
	6.600000	0.014800
	6.400000	0.014800
	6.400000	0.014400
	6.200000	0.014000
	6.200000	0.014000
	6.200000	0.014000
	6.000000	0.013600
	6.000000	0.013600
	5.800000	0.013600
	5.800000	0.012800
	5.800000	0.012800
	5.600000	0.012800
	5.600000	0.012400
	5.400000	0.012400
	5.400000	0.012000
	5.400000	0.012000
	5.200000	0.012000
	5.200000	0.011600
	5.000000	0.011600
	5.000000	0.011200
	4.800000	0.011600
	4.800000	0.010800
	4.800000	0.010800
	4.600000	0.010400
	4.600000	0.010400
	4.600000	0.010000
	4.400000	0.010000
	4.400000	0.010000
	4.200000	0.009600
	4.200000	0.009200
	4.200000	0.008800
	4.000000	0.009200
	4.000000	0.008400
	3.800000	0.008400
	3.800000	0.008400
	3.600000	0.008400
	3.600000	0.008000
	3.600000	0.007600
	3.400000	0.008000
	3.400000	0.007600
	3.200000	0.007600
	3.200000	0.006800
	3.000000	0.007200
	3.000000	0.006800
	3.000000	0.006400
	2.800000	0.006400
	2.800000	0.006000
	2.800000	0.006000
	2.600000	0.005600
	2.600000	0.005600
	2.400000	0.005600
	2.400000	0.005200
	2.400000	0.005200
	2.200000	0.004800
	2.200000	0.004800
	2.000000	0.004400
	2.000000	0.004400
	1.800000	0.004000
	1.800000	0.004000
	1.800000	0.004000
	1.600000	0.003600
	1.600000	0.003600
	1.400000	0.003200
	1.400000	0.003200
	1.400000	0.002800
	1.200000	0.002800
	1.200000	0.002400
	1.000000	0.002000
	1.000000	0.002000
	0.800000	0.002000
	0.800000	0.001600
	0.800000	0.001200
	0.800000	0.001200
	0.600000	0.001200
	0.400000	0.001200
	0.400000	0.000400
	0.200000	0.000400
	0.200000	0.000400
	0.200000	0.000000
	0.000000	0.000000
	0.000000	-0.000400
	-0.200000	-0.000400
	-0.200000	-0.000400
	-0.200000	-0.000400
	-0.400000	-0.000800
	-0.400000	-0.000800
	-0.600000	-0.001200
	-0.600000	-0.001600
	-0.600000	-0.001600
	-0.800000	-0.001600
	-0.800000	-0.001600
	-1.000000	-0.002400
	-1.000000	-0.002400
	-1.000000	-0.002400
	-1.200000	-0.002800
	-1.200000	-0.002800
	-1.400000	-0.003200
	-1.400000	-0.003200
	-1.600000	-0.003600
	-1.600000	-0.003600
	-1.800000	-0.004000
	-1.800000	-0.004000
	-1.800000	-0.004000
	-2.000000	-0.004400
	-2.000000	-0.004400
	-2.200000	-0.004800
	-2.200000	-0.004800
	-2.200000	-0.005200
	-2.400000	-0.005200
	-2.400000	-0.005600
	-2.400000	-0.006000
	-2.600000	-0.006000
	-2.600000	-0.006000
	-2.800000	-0.006400
	-2.800000	-0.006800
	-3.000000	-0.006800
	-3.000000	-0.007200
	-3.000000	-0.007200
	-3.200000	-0.007200
	-3.200000	-0.007600
	-3.200000	-0.007600
	-3.400000	-0.007600
	-3.400000	-0.008000
	-3.600000	-0.008000
	-3.600000	-0.008400
	-3.800000	-0.008800
	-3.800000	-0.008800
	-3.800000	-0.008800
	-4.000000	-0.009200
	-4.000000	-0.009200
	-4.200000	-0.009600
	-4.200000	-0.009600
	-4.400000	-0.010000
	-4.400000	-0.010000
	-4.400000	-0.010400
	-4.600000	-0.010400
	-4.600000	-0.010400
	-4.800000	-0.010800
	-4.800000	-0.010800
	-4.800000	-0.011600
	-5.000000	-0.011200
	-5.000000	-0.011600
	-5.000000	-0.011600
	-5.200000	-0.012000
	-5.200000	-0.012000
	-5.400000	-0.012400
	-5.400000	-0.012800
	-5.600000	-0.012400
	-5.600000	-0.012800
	-5.600000	-0.013200
	-5.800000	-0.013600
	-5.800000	-0.013600
	-6.000000	-0.013600
	-6.000000	-0.013600
	-6.000000	-0.014000
	-6.200000	-0.014000
	-6.200000	-0.014400
	-6.400000	-0.015200
	-6.400000	-0.014800
	-6.600000	-0.014800
	-6.600000	-0.014800
	-6.800000	-0.015600
	-6.800000	-0.015600
	-7.000000	-0.015600
	-7.000000	-0.016000
	-7.000000	-0.016000
	-7.200000	-0.016400
	-7.200000	-0.016400
	-7.200000	-0.016800
	-7.400000	-0.017200
	-7.400000	-0.017200
	-7.600000	-0.017200
	-7.600000	-0.017200
	-7.800000	-0.017600
	-7.800000	-0.017600
	-7.800000	-0.018000
	-8.000000	-0.018000
	-8.000000	-0.018400
	-8.200000	-0.018800
	-8.200000	-0.018800
	-8.200000	-0.019200
	-8.400000	-0.019200
	-8.400000	-0.019600
	-8.600000	-0.019600
	-8.600000	-0.019600
	-8.800000	-0.020000
	-8.800000	-0.020000
	-8.800000	-0.020400
	-9.000000	-0.020400
	-9.000000	-0.020400
	-9.000000	-0.020800
	-9.200000	-0.020800
	-9.200000	-0.021200
	-9.400000	-0.021200
	-9.400000	-0.021200
	-9.400000	-0.021600
	-9.600000	-0.022000
	-9.600000	-0.022000
	-9.800000	-0.022400
	-9.800000	-0.022400
	-9.800000	-0.022400
	-10.000000	-0.022800
	-10.000000	-0.022800
	-10.200000	-0.023200
	-10.200000	-0.023200
	-10.200000	-0.023600
	-10.400000	-0.023600
	-10.400000	-0.024000
	-10.600000	-0.024000
	-10.600000	-0.024400
	-10.600000	-0.024400
	-10.800000	-0.024400
	-10.800000	-0.025200
	-11.000000	-0.025200
	-11.000000	-0.025200
	-11.000000	-0.025600
	-11.200000	-0.025600
	-11.200000	-0.025600
	-11.400000	-0.026000
	-11.400000	-0.026400
	-11.400000	-0.026000
	-11.600000	-0.026400
	-11.600000	-0.026400
	-11.800000	-0.027200
	-11.800000	-0.027200
	-11.800000	-0.027200
	-12.000000	-0.027600
	-12.000000	-0.028000
	-12.200000	-0.028000
	-12.200000	-0.028000
	-12.400000	-0.028400
	-12.400000	-0.028400
	-12.400000	-0.028800
	-12.600000	-0.028800
	-12.600000	-0.028800
	-12.800000	-0.029200
	-12.800000	-0.029200
	-12.800000	-0.029200
	-13.000000	-0.029600
	-13.000000	-0.030000
	-13.200000	-0.029600
	-13.200000	-0.030400
	-13.200000	-0.030400
	-13.400000	-0.030800
	-13.400000	-0.030800
	-13.600000	-0.030800
	-13.600000	-0.031200
	-13.600000	-0.031200
	-13.800000	-0.031600
	-13.800000	-0.031600
	-14.000000	-0.032000
	-14.000000	-0.032000
	-14.200000	-0.032400
	-14.200000	-0.032400
	-14.400000	-0.032800
	-14.400000	-0.032800
	-14.400000	-0.033200
	-14.600000	-0.033200
	-14.600000	-0.033200
	-14.800000	-0.033600
	-14.800000	-0.033600
	-14.800000	-0.033600
	-15.000000	-0.034000
	-15.000000	-0.034000
	-15.000000	-0.034400
	-15.200000	-0.034400
	-15.200000	-0.034800
	-15.400000	-0.035200
	-15.400000	-0.035200
	-15.600000	-0.035200
	-15.600000	-0.035600
	-15.600000	-0.036000
	-15.800000	-0.035600
	-15.800000	-0.036400
	-16.000000	-0.036400
	-16.000000	-0.036400
	-16.000000	-0.036400
	-16.200000	-0.036400
	-16.200000	-0.037200
	-16.400000	-0.037200
	-16.400000	-0.037200
	-16.400000	-0.037600
	-16.600000	-0.037600
	-16.600000	-0.038000
	-16.800000	-0.038000
	-16.800000	-0.038400
	-16.800000	-0.038400
	-17.000000	-0.038800
	-17.000000	-0.038800
	-17.000000	-0.039200
	-17.200000	-0.039200
	-17.200000	-0.039200
	-17.200000	-0.039600
	-17.400000	-0.039600
	-17.400000	-0.040000
	-17.600000	-0.040000
	-17.600000	-0.040000
	-17.600000	-0.040400
	-17.800000	-0.040800
	-17.800000	-0.040800
	-18.000000	-0.040800
	-18.000000	-0.041200
	-18.000000	-0.041200
	-18.200000	-0.041600
	-18.200000	-0.041600
	-18.400000	-0.042000
	-18.400000	-0.042000
	-18.600000	-0.042000
	-18.600000	-0.042000
	-18.600000	-0.042800
	-18.600000	-0.042800
	-18.800000	-0.042800
	-18.800000	-0.043200
	-19.000000	-0.043200
	-19.000000	-0.043600
	-19.200000	-0.043600
	-19.200000	-0.044000
	-19.200000	-0.044000
	-19.400000	-0.044000
	-19.400000	-0.044400
	-19.600000	-0.044400
	-19.600000	-0.044800
	-19.600000	-0.044800
	-19.800000	-0.045200
	-19.800000	-0.045200
	-20.000000	-0.045600
	-20.000000	-0.045600
	-20.000000	-0.046000
	-20.200000	-0.046000
	-20.200000	-0.046000
	-20.400000	-0.046800
	-20.400000	-0.046400
	-20.400000	-0.046400
	-20.200000	-0.046000
	-20.200000	-0.046000
	-20.000000	-0.046000
	-20.000000	-0.045600
	-20.000000	-0.045600
	-19.800000	-0.045200
	-19.800000	-0.045200
	-19.600000	-0.044800
	-19.600000	-0.044800
	-19.600000	-0.044400
	-19.400000	-0.044400
	-19.400000	-0.044000
	-19.400000	-0.044000
	-19.200000	-0.043600
	-19.200000	-0.043600
	-19.000000	-0.043600
	-19.000000	-0.043200
	-18.800000	-0.042800
	-18.800000	-0.042800
	-18.800000	-0.042800
	-18.600000	-0.042400
	-18.600000	-0.042000
	-18.600000	-0.042000
	-18.400000	-0.041600
	-18.400000	-0.041600
	-18.200000	-0.041200
	-18.200000	-0.041200
	-18.200000	-0.041200
	-18.000000	-0.040800
	-18.000000	-0.040800
	-17.800000	-0.040400
	-17.800000	-0.040400
	-17.800000	-0.040000
	-17.600000	-0.040000
	-17.600000	-0.039600
	-17.400000	-0.039600
	-17.400000	-0.039200
	-17.200000	-0.039200
	-17.200000	-0.038800
	-17.200000	-0.038800
	-17.000000	-0.038400
	-17.000000	-0.038400
	-17.000000	-0.038400
	-16.800000	-0.038000
	-16.800000	-0.037600
	-16.800000	-0.038000
	-16.600000	-0.037600
	-16.600000	-0.037600
	-16.600000	-0.037200
	-16.400000	-0.037200
	-16.400000	-0.036800
	-16.200000	-0.036800
	-16.200000	-0.036800
	-16.200000	-0.036400
	-16.000000	-0.036000
	-16.000000	-0.036000
	-15.800000	-0.035600
	-15.800000	-0.035600
	-15.600000	-0.035200
	-15.600000	-0.035200
	-15.600000	-0.034800
	-15.400000	-0.034800
	-15.400000	-0.034800
	-15.200000	-0.034400
	-15.200000	-0.034000
	-15.200000	-0.034400
	-15.000000	-0.034000
	-15.000000	-0.033600
	-14.800000	-0.033600
	-14.800000	-0.033200
	-14.800000	-0.033200
	-14.600000	-0.032800
	-14.600000	-0.032800
	-14.400000	-0.032400
	-14.400000	-0.032400
	-14.400000	-0.032000
	-14.200000	-0.032000
	-14.200000	-0.032000
	-14.000000	-0.031600
	-14.000000	-0.031200
	-14.000000	-0.031200
	-13.800000	-0.031200
	-13.600000	-0.030800
	-13.600000	-0.030400
	-13.600000	-0.030400
	-13.400000	-0.030400
	-13.400000	-0.030000
	-13.200000	-0.029600
	-13.200000	-0.029600
	-13.200000	-0.029200
	-13.000000	-0.029200
	-13.000000	-0.028800
	-13.000000	-0.029200
	-12.800000	-0.028800
	-12.800000	-0.028800
	-12.600000	-0.028400
	-12.600000	-0.028000
	-12.400000	-0.028000
	-12.400000	-0.027600
	-12.400000	-0.027600
	-12.200000	-0.027600
	-12.200000	-0.027200
	-12.000000	-0.027200
	-12.000000	-0.026800
	-12.000000	-0.026800
	-11.800000	-0.026400
	-11.800000	-0.026400
	-11.600000	-0.026000
	-11.600000	-0.026000
	-11.600000	-0.026000
	-11.400000	-0.025600
	-11.400000	-0.025600
	-11.200000	-0.025200
	-11.200000	-0.025200
	-11.000000	-0.024800
	-11.000000	-0.024800
	-11.000000	-0.024800
	-10.800000	-0.024000
	-10.800000	-0.024000
	-10.800000	-0.024000
	-10.600000	-0.023600
	-10.600000	-0.023200
	-10.400000	-0.023200
	-10.400000	-0.022800
	-10.400000	-0.023200
	-10.200000	-0.022800
	-10.200000	-0.022400
	-10.000000	-0.022400
	-10.000000	-0.022000
	-9.800000	-0.022000
	-9.800000	-0.021600
	-9.800000	-0.021600
	-9.600000	-0.021600
	-9.600000	-0.021200
	-9.400000	-0.021200
	-9.400000	-0.020800
	-9.400000	-0.020800
	-9.200000	-0.020400
	-9.200000	-0.020000
	-9.000000	-0.020000
	-9.000000	-0.020000
	-9.000000	-0.019600
	-8.800000	-0.019600
	-8.800000	-0.019200
	-8.800000	-0.019200
	-8.600000	-0.019200
	-8.600000	-0.018800
	-8.400000	-0.018400
	-8.400000	-0.018400
	-8.400000	-0.018400
	-8.200000	-0.018000
	-8.200000	-0.018000
	-8.000000	-0.017600
	-8.000000	-0.017600
	-7.800000	-0.017200
	-7.800000	-0.017200
	-7.800000	-0.016800
	-7.600000	-0.016800
	-7.600000	-0.016800
	-7.400000	-0.016400
	-7.400000	-0.016400
	-7.200000	-0.016000
	-7.200000	-0.015600
	-7.200000	-0.016000
	-7.000000	-0.015600
	-7.000000	-0.015200
	-7.000000	-0.015200
	-6.800000	-0.014800
	-6.800000	-0.014800
	-6.600000	-0.014400
	-6.600000	-0.014400
	-6.400000	-0.014000
	-6.400000	-0.014000
	-6.200000	-0.013600
	-6.200000	-0.013600
	-6.200000	-0.013200
	-6.000000	-0.013200
	-6.000000	-0.013200
	-5.800000	-0.012800
	-5.800000	-0.012800
	-5.600000	-0.012400
	-5.600000	-0.012400
	-5.600000	-0.012000
	-5.400000	-0.012000
	-5.400000	-0.011600
	-5.200000	-0.011600
	-5.200000	-0.011200
	-5.200000	-0.011200
	-5.000000	-0.010800
	-5.000000	-0.010800
	-5.000000	-0.010800
	-4.800000	-0.010400
	-4.800000	-0.010000
	-4.600000	-0.010000
	-4.600000	-0.010000
	-4.400000	-0.009600
	-4.400000	-0.009200
	-4.400000	-0.009200
	-4.200000	-0.009200
	-4.200000	-0.008400
	-4.000000	-0.008400
	-4.000000	-0.008400
	-4.000000	-0.008400
	-3.800000	-0.008000
	-3.800000	-0.008000
	-3.600000	-0.007600
	-3.600000	-0.007600
	-3.400000	-0.007200
	-3.400000	-0.007200
	-3.400000	-0.007200
	-3.200000	-0.006800
	-3.200000	-0.006800
	-3.000000	-0.006400
	-3.000000	-0.006000
	-3.000000	-0.006000
	-2.800000	-0.006000
	-2.800000	-0.005600
	-2.800000	-0.005200
	-2.600000	-0.005600
	-2.600000	-0.004800
	-2.400000	-0.004800
	-2.400000	-0.004800
	-2.200000	-0.004400
	-2.200000	-0.004000
	-2.200000	-0.004000
	-2.000000	-0.004000
	-2.000000	-0.003600
	-1.800000	-0.003600
	-1.800000	-0.003200
	-1.800000	-0.003200
	-1.600000	-0.002800
	-1.600000	-0.002400
	-1.400000	-0.002400
	-1.400000	-0.002400
	-1.200000	-0.002400
	-1.200000	-0.001600
	-1.200000	-0.002000
	-1.000000	-0.001600
	-1.000000	-0.001200
	-0.800000	-0.001200
	-0.800000	-0.001200
	-0.600000	-0.000800
	-0.600000	-0.000400
	-0.600000	-0.000400
	-0.400000	-0.000400
	-0.400000	0.000000
	-0.200000	0.000000
	-0.200000	0.000400
	-0.200000	0.000400
	0.000000	0.000800
	0.000000	0.000800
	0.200000	0.000800
	0.200000	0.001200
	0.200000	0.001200
	0.400000	0.001600
	0.400000	0.001600
	0.600000	0.002000
	0.600000	0.002000
	0.800000	0.002400
	0.800000	0.002400
	0.800000	0.002800
	1.000000	0.002800
	1.000000	0.002800
	1.200000	0.003200
	1.200000	0.003200
	1.400000	0.003600
	1.400000	0.004000
	1.400000	0.004000
	1.600000	0.004000
	1.600000	0.004400
	1.800000	0.004400
	1.800000	0.004800
	1.800000	0.004400
	2.000000	0.004800
	2.000000	0.005600
	2.200000	0.005200
	2.200000	0.005600
	2.200000	0.005600
	2.400000	0.006000
	2.400000	0.006000
	2.600000	0.006400
	2.600000	0.006400
	2.600000	0.006800
	2.800000	0.007200
	2.800000	0.006800
	3.000000	0.007200
	3.000000	0.007600
	3.000000	0.008000
	3.200000	0.007600
	3.200000	0.008000
	3.400000	0.008000
	3.400000	0.008400
	3.600000	0.008400
	3.600000	0.008800
	3.600000	0.009200
	3.800000	0.008800
	3.800000	0.009600
	4.000000	0.009600
	4.000000	0.010000
	4.000000	0.009600
	4.200000	0.010000
	4.200000	0.010400
	4.400000	0.010400
	4.400000	0.010800
	4.600000	0.010800
	4.600000	0.011200
	4.600000	0.011200
	4.800000	0.011600
	4.800000	0.011600
	4.800000	0.011600
	5.000000	0.012000
	5.000000	0.012000
	5.200000	0.012400
	5.200000	0.012400
	5.200000	0.012800
	5.400000	0.012800
	5.400000	0.012800
	5.600000	0.013600
	5.600000	0.013200
	5.600000	0.013600
	5.800000	0.013600
	5.800000	0.014400
	6.000000	0.014000
	6.000000	0.014400
	6.200000	0.014400
	6.200000	0.014800
	6.200000	0.014800
	6.400000	0.014800
	6.400000	0.015600
	6.600000	0.015600
	6.600000	0.015600
	6.600000	0.016000
	6.800000	0.016000
	6.800000	0.016400
	7.000000	0.016400
	7.000000	0.016800
	7.000000	0.016800
	7.200000	0.017200
	7.200000	0.017200
	7.400000	0.017600
	7.400000	0.017600
	7.600000	0.018000
	7.600000	0.018000
	7.600000	0.018000
	7.800000	0.018400
	7.800000	0.018400
	8.000000	0.018800
	8.000000	0.018800
	8.200000	0.018800
	8.200000	0.019200
	8.400000	0.019200
	8.400000	0.019600
	8.400000	0.019600
	8.600000	0.020000
	8.600000	0.020000
	8.800000	0.020400
	8.800000	0.020400
	8.800000	0.020800
	9.000000	0.020800
	9.000000	0.021200
	9.000000	0.021200
	9.200000	0.021600
	9.200000	0.021600
	9.400000	0.021600
	9.400000	0.022000
	9.400000	0.022400
	9.600000	0.022400
	9.600000	0.022400
	9.800000	0.022400
	9.800000	0.023200
	9.800000	0.023200
	10.000000	0.023600
	10.000000	0.023600
	10.200000	0.023600
	10.200000	0.023600
	10.400000	0.024000
	10.400000	0.024400
	10.400000	0.024000
	10.600000	0.024800
	10.600000	0.024800
	10.800000	0.024800
	10.800000	0.025200
	10.800000	0.025200
	11.000000	0.025600
	11.000000	0.025600
	11.200000	0.026000
	11.200000	0.026000
	11.200000	0.026400
	11.400000	0.026000
	11.400000	0.026400
	11.600000	0.026800
	11.600000	0.027200
	11.600000	0.027200
	11.800000	0.027200
	11.800000	0.027600
	12.000000	0.027600
	12.000000	0.028000
	12.200000	0.028000
	12.200000	0.028400
	12.200000	0.028400
	12.400000	0.028800
	12.400000	0.028800
	12.600000	0.028800
	12.600000	0.029200
	12.600000	0.029200
	12.800000	0.029600
	12.800000	0.029600
	12.800000	0.030000
	13.000000	0.030000
	13.000000	0.030000
	13.200000	0.030400
	13.200000	0.030400
	13.200000	0.030800
	13.400000	0.030800
	13.400000	0.031200
	13.600000	0.031200
	13.600000	0.031600
	13.600000	0.031600
	13.800000	0.032000
	13.800000	0.032000
	14.000000	0.032000
	14.000000	0.032400
	14.000000	0.032400
	14.200000	0.032800
	14.200000	0.032800
	14.400000	0.033200
	14.400000	0.033200
	14.400000	0.033200
	14.600000	0.033600
	14.600000	0.033600
	14.600000	0.034000
	14.800000	0.034400
	14.800000	0.034000
	14.800000	0.034400
	15.000000	0.034800
	15.000000	0.034800
	15.200000	0.034800
	15.200000	0.035200
	15.400000	0.035200
	15.400000	0.035600
	15.600000	0.035600
	15.600000	0.036000
	15.800000	0.036400
	15.800000	0.036000
	15.800000	0.036400
	16.000000	0.036800
	16.000000	0.036800
	16.200000	0.036800
	16.200000	0.037200
	16.200000	0.037600
	16.400000	0.037600
	16.400000	0.037600
	16.400000	0.037600
	16.600000	0.038400
	16.600000	0.038000
	16.800000	0.038800
	16.800000	0.038400
	16.800000	0.038800
	17.000000	0.038800
	17.000000	0.038800
	17.200000	0.039600
	17.200000	0.039600
	17.200000	0.040000
	17.400000	0.039600
	17.400000	0.040000
	17.600000	0.040400
	17.600000	0.040400
	17.800000	0.040800
	17.800000	0.040800
	17.800000	0.041200
	18.000000	0.041200
	18.000000	0.041600
	18.200000	0.041600
	18.200000	0.042000
	18.400000	0.042000
	18.400000	0.042000
	18.400000	0.042400
	18.600000	0.042800
	18.600000	0.042800
	18.600000	0.042800
	18.800000	0.043200
	18.800000	0.043200
	18.800000	0.043600
	19.000000	0.043600
	19.000000	0.043600
	19.200000	0.044000
	19.200000	0.044000
	19.400000	0.044400
	19.400000	0.044800
	19.400000	0.044400
	19.600000	0.044800
	19.600000	0.044800
	19.800000	0.045600
	19.800000	0.045600
	19.800000	0.045600
	20.000000	0.046000
	20.000000	0.046000
	20.200000	0.046400
	20.200000	0.046400
	20.200000	0.046000
	20.000000	0.046000
	20.000000	0.045600
	19.800000	0.045200
	19.800000	0.045600
	19.800000	0.045200
	19.600000	0.044800
	19.600000	0.044800
	19.400000	0.044400
	19.400000	0.044400
	19.400000	0.044000
	19.200000	0.044000
	19.200000	0.044000
	19.200000	0.043600
	19.000000	0.043200
	19.000000	0.043200
	18.800000	0.043200
	18.800000	0.042800
	18.600000	0.042800

