LabVIEW Measurement	
Writer_Version	2
Reader_Version	2
Separator	Tab
Decimal_Separator	.
Multi_Headings	Yes
X_Columns	One
Time_Pref	Relative
Operator	e014
Description	Hysteresis Loop Data
Date	2015/08/21
Time	17:21:02.4731760025024414063
***End_of_Header***	
	
Channels	2		
Samples	125	125	
Date	2015/08/21	2015/08/21	
Time	17:21:02.4731760025024414063	17:21:02.4731760025024414063	
Y_Unit_Label	V	V	
X_Dimension	Time	Time	
X0	0.0000000000000000E+0	0.0000000000000000E+0	
Delta_X	8.000000E-5	8.000000E-5	
***End_of_Header***			
X_Value	Applied Voltage	Sense Voltage	Comment
0.000000	-20.212692	-4.638530
8.000000E-5	-19.193428	-4.559291
0.000160	-17.941815	-4.538248
0.000240	-17.549453	-4.263048
0.000320	-16.188243	-4.360700
0.000400	-15.651211	-4.092404
0.000480	-14.875256	-3.917158
0.000560	-13.877912	-3.829370
0.000640	-12.678907	-3.683714
0.000720	-12.240514	-3.387143
0.000800	-10.899033	-3.288833
0.000880	-10.217332	-3.177372
0.000960	-9.415073	-3.021524
0.001040	-8.408963	-2.735145
0.001120	-7.411620	-2.369198
0.001200	-6.863629	-2.284369
0.001280	-5.627363	-1.876994
0.001360	-4.996078	-1.773424
0.001440	-4.211355	-1.499210
0.001520	-3.321419	-1.187843
0.001600	-2.413947	-0.879434
0.001680	-1.532779	-0.563134
0.001760	-0.592428	-0.237628
0.001840	0.378610	0.138183
0.001920	1.191828	0.403849
0.002000	2.062036	0.730670
0.002080	3.017730	1.085111
0.002160	3.841907	1.366230
0.002240	4.698963	1.659843
0.002320	5.604242	1.938003
0.002400	6.478833	2.188874
0.002480	7.296434	2.442375
0.002560	8.431868	2.720206
0.002640	9.330571	3.016450
0.002720	10.185435	3.224578
0.002800	11.189352	3.326175
0.002880	11.772412	3.444871
0.002960	12.714954	3.771035
0.003040	13.405421	3.846330
0.003120	14.499207	3.943324
0.003200	15.417637	4.085364
0.003280	16.075224	4.318151
0.003360	17.000230	4.477288
0.003440	18.102784	4.516744
0.003520	19.056285	4.606834
0.003600	19.613042	4.791288
0.003680	20.456945	4.899133
0.003760	21.592379	4.931684
0.003840	22.699316	5.085889
0.003920	23.052221	5.248314
0.004000	24.446305	5.313087
0.004080	25.259521	5.327883
0.004160	25.779014	5.403177
0.004240	26.515512	5.523845
0.004320	27.052541	5.569877
0.004400	26.193294	5.485705
0.004480	25.334047	5.484719
0.004560	24.829898	5.356159
0.004640	23.810638	5.146388
0.004720	22.968927	5.173678
0.004800	21.824726	5.077669
0.004880	21.007126	4.912285
0.004960	20.125960	4.815619
0.005040	19.170267	4.771231
0.005120	18.611318	4.538115
0.005200	17.469309	4.507209
0.005280	17.000230	4.256009
0.005360	16.002890	4.083391
0.005440	15.108571	3.914390
0.005520	14.301931	3.879867
0.005600	13.015252	3.786160
0.005680	12.530830	3.554031
0.005760	11.391012	3.283103
0.005840	10.419974	3.163751
0.005920	9.580454	2.933594
0.006000	8.914099	2.814570
0.006080	7.813736	2.613677
0.006160	7.121077	2.387466
0.006240	6.044826	2.056370
0.006320	5.152698	1.807801
0.006400	4.385513	1.607894
0.006480	3.442970	1.258714
0.006560	2.581530	0.975622
0.006640	1.700362	0.654390
0.006720	0.808235	0.321979
0.006800	-0.081701	0.003378
0.006880	-0.929990	-0.332979
0.006960	-1.802390	-0.645004
0.007040	-2.690134	-0.967879
0.007120	-3.582262	-1.274644
0.007200	-4.463431	-1.570558
0.007280	-5.342407	-1.854636
0.007360	-6.227960	-2.110438
0.007440	-7.113513	-2.361307
0.007520	-8.025369	-2.608889
0.007600	-8.895578	-2.816686
0.007680	-9.774555	-3.026127
0.007760	-10.675452	-3.223404
0.007840	-11.556622	-3.406213
0.007920	-12.429023	-3.582446
0.008000	-13.321153	-3.745199
0.008080	-14.206706	-3.906307
0.008160	-15.092260	-4.052620
0.008240	-15.973430	-4.191042
0.008320	-16.854600	-4.332095
0.008400	-17.746730	-4.457036
0.008480	-18.632284	-4.581978
0.008560	-19.515647	-4.700014
0.008640	-20.394626	-4.810489
0.008720	-21.288948	-4.923265
0.008800	-22.172311	-5.020917
0.008880	-23.053482	-5.121527
0.008960	-23.936845	-5.220823
0.009040	-24.826785	-5.310912
0.009120	-25.707956	-5.403961
0.009200	-26.586936	-5.484844
0.009280	-27.373853	-5.558494
0.009360	-26.889428	-5.427305
0.009440	-26.181421	-5.334585
0.009520	-25.210379	-5.256333
0.009600	-24.072747	-5.256661
0.009680	-23.726416	-5.179395
0.009760	-22.501106	-5.006450
0.009840	-22.025449	-4.881180
0.009920	-20.792468	-4.888577

