LabVIEW Measurement	
Writer_Version	2
Reader_Version	2
Separator	Tab
Decimal_Separator	.
Multi_Headings	Yes
X_Columns	One
Time_Pref	Relative
Operator	e014
Description	Hysteresis Loop Data
Date	2015/08/17
Time	12:01:10.0374917984008789063
***End_of_Header***	
	
Channels	2		
Samples	200	200	
Date	2015/08/17	2015/08/17	
Time	12:01:10.0374917984008789063	12:01:10.0374917984008789063	
Y_Unit_Label	V	V	
X_Dimension	Time	Time	
X0	0.0000000000000000E+0	0.0000000000000000E+0	
Delta_X	1.000000E-5	1.000000E-5	
***End_of_Header***			
X_Value	Applied Voltage	Sense Voltage	Comment
0.000000	7.409228	-0.610711
1.000000E-5	7.930147	-0.588024
2.000000E-5	8.455318	-0.562817
3.000000E-5	8.976237	-0.540130
4.000000E-5	9.490777	-0.514922
5.000000E-5	10.030832	-0.489715
6.000000E-5	10.543246	-0.464507
7.000000E-5	11.055660	-0.441820
8.000000E-5	11.591462	-0.414092
9.000000E-5	12.101750	-0.386364
1.000000E-4	12.633299	-0.363677
0.000110	13.154218	-0.338470
0.000120	13.670884	-0.308220
0.000130	14.204560	-0.277971
0.000140	14.699964	-0.250243
0.000150	15.252776	-0.219994
0.000160	15.763063	-0.192266
0.000170	16.277603	-0.167058
0.000180	16.817658	-0.136809
0.000190	17.323693	-0.104039
0.000200	17.855242	-0.073790
0.000210	18.380413	-0.043541
0.000220	18.892827	-0.013292
0.000230	19.415871	0.021998
0.000240	19.951673	0.052247
0.000250	20.459834	0.079976
0.000260	20.991384	0.117787
0.000270	21.508050	0.153078
0.000280	22.031094	0.178285
0.000290	22.554139	0.216096
0.000300	23.087814	0.251387
0.000310	23.610859	0.281636
0.000320	24.119020	0.319447
0.000330	24.644190	0.354738
0.000340	25.165109	0.387508
0.000350	25.683901	0.427840
0.000360	26.194188	0.460610
0.000370	25.371350	0.495900
0.000380	24.937606	0.528670
0.000390	24.416687	0.553877
0.000400	23.883012	0.586647
0.000410	23.370598	0.616896
0.000420	22.851806	0.644625
0.000430	22.305374	0.669832
0.000440	21.797212	0.695040
0.000450	21.263537	0.712685
0.000460	20.748997	0.740413
0.000470	20.230205	0.763100
0.000480	19.705034	0.780745
0.000490	19.167106	0.800911
0.000500	18.654693	0.816036
0.000510	18.131648	0.833681
0.000520	17.614982	0.848806
0.000530	17.087685	0.866451
0.000540	16.571019	0.876534
0.000550	16.039469	0.886617
0.000560	15.524929	0.899221
0.000570	15.006137	0.909304
0.000580	14.474587	0.921908
0.000590	13.960047	0.926949
0.000600	13.445507	0.931991
0.000610	12.909705	0.942074
0.000620	12.403670	0.947115
0.000630	11.867868	0.949636
0.000640	11.351202	0.952157
0.000650	10.830283	0.957198
0.000660	10.302985	0.959719
0.000670	9.792698	0.959719
0.000680	9.256895	0.964760
0.000690	8.735977	0.964760
0.000700	8.215058	0.962240
0.000710	7.685634	0.957198
0.000720	7.177472	0.954677
0.000730	6.648049	0.949636
0.000740	6.105868	0.947115
0.000750	5.601958	0.937032
0.000760	5.068282	0.929470
0.000770	4.555868	0.924428
0.000780	4.030696	0.914345
0.000790	3.509777	0.906783
0.000800	2.984606	0.891659
0.000810	2.461560	0.884096
0.000820	1.936389	0.874013
0.000830	1.419722	0.863930
0.000840	0.892424	0.848806
0.000850	0.380009	0.836202
0.000860	-0.130279	0.818557
0.000870	-0.642694	0.803432
0.000880	-1.142351	0.788308
0.000890	-1.676028	0.773183
0.000900	-2.196947	0.755538
0.000910	-2.715740	0.737893
0.000920	-3.238786	0.717727
0.000930	-3.761832	0.702602
0.000940	-4.284878	0.687477
0.000950	-4.799419	0.664791
0.000960	-5.326717	0.642104
0.000970	-5.849763	0.619417
0.000980	-6.372809	0.601772
0.000990	-6.900107	0.581606
0.001000	-7.414649	0.556398
0.001010	-7.941947	0.536232
0.001020	-8.462867	0.511025
0.001030	-8.983787	0.485817
0.001040	-9.508959	0.463130
0.001050	-10.027753	0.440444
0.001060	-10.552926	0.412715
0.001070	-11.071720	0.384987
0.001080	-11.599019	0.359779
0.001090	-12.113560	0.332051
0.001100	-12.630228	0.306844
0.001110	-13.157527	0.279115
0.001120	-13.676321	0.248866
0.001130	-14.199368	0.221138
0.001140	-14.722414	0.190889
0.001150	-15.243335	0.160640
0.001160	-15.760003	0.132912
0.001170	-16.287302	0.102662
0.001180	-16.795466	0.069893
0.001190	-17.324891	0.037123
0.001200	-17.847938	0.006874
0.001210	-18.366733	-0.025896
0.001220	-18.889780	-0.056145
0.001230	-19.410700	-0.091436
0.001240	-19.925243	-0.119164
0.001250	-20.446164	-0.156975
0.001260	-20.964959	-0.189745
0.001270	-21.490132	-0.219994
0.001280	-22.011053	-0.257805
0.001290	-22.527722	-0.293096
0.001300	-23.055022	-0.328386
0.001310	-23.573817	-0.363677
0.001320	-24.101117	-0.401488
0.001330	-24.619912	-0.436779
0.001340	-25.136581	-0.472069
0.001350	-25.659629	-0.512402
0.001360	-26.161415	-0.572900
0.001370	-25.340697	-0.605669
0.001380	-24.904824	-0.633398
0.001390	-24.388155	-0.663647
0.001400	-23.852350	-0.693896
0.001410	-23.337808	-0.719103
0.001420	-22.814760	-0.744311
0.001430	-22.295965	-0.766998
0.001440	-21.775044	-0.792205
0.001450	-21.256249	-0.814892
0.001460	-20.737454	-0.832537
0.001470	-20.212281	-0.852703
0.001480	-19.689234	-0.870349
0.001490	-19.176818	-0.887994
0.001500	-18.658023	-0.905639
0.001510	-18.132850	-0.920764
0.001520	-17.609803	-0.933368
0.001530	-17.084630	-0.945971
0.001540	-16.565835	-0.961096
0.001550	-16.059798	-0.971179
0.001560	-15.534625	-0.978741
0.001570	-15.009452	-0.988824
0.001580	-14.497036	-0.996386
0.001590	-13.965485	-1.008990
0.001600	-13.446691	-1.011511
0.001610	-12.934275	-1.016552
0.001620	-12.404850	-1.026635
0.001630	-11.883930	-1.024115
0.001640	-11.363010	-1.026635
0.001650	-10.846342	-1.031677
0.001660	-10.316917	-1.029156
0.001670	-9.800249	-1.034198
0.001680	-9.270825	-1.029156
0.001690	-8.752031	-1.029156
0.001700	-8.235363	-1.026635
0.001710	-7.703812	-1.011511
0.001720	-7.185019	-1.006469
0.001730	-6.661973	-1.001428
0.001740	-6.136800	-0.993866
0.001750	-5.618007	-0.988824
0.001760	-5.097087	-0.981262
0.001770	-4.571915	-0.973700
0.001780	-4.048869	-0.968658
0.001790	-3.530076	-0.958575
0.001800	-3.000651	-0.948492
0.001810	-2.481858	-0.935888
0.001820	-1.963065	-0.920764
0.001830	-1.442145	-0.913202
0.001840	-0.919100	-0.900598
0.001850	-0.398180	-0.880432
0.001860	0.116360	-0.872869
0.001870	0.609639	-0.852703
0.001880	1.128432	-0.840100
0.001890	1.647225	-0.822454
0.001900	2.174523	-0.807330
0.001910	2.693316	-0.789685
0.001920	3.220614	-0.772039
0.001930	3.743659	-0.754394
0.001940	4.264578	-0.734228
0.001950	4.783371	-0.716583
0.001960	5.310669	-0.696417
0.001970	5.833714	-0.676251
0.001980	6.348254	-0.656085
0.001990	6.621471	-0.644741

