LabVIEW Measurement	
Writer_Version	2
Reader_Version	2
Separator	Tab
Decimal_Separator	.
Multi_Headings	Yes
X_Columns	One
Time_Pref	Relative
Operator	e014
Description	Hysteresis Loop Data
Date	2015/08/17
Time	12:15:29.3416409492492675781
***End_of_Header***	
	
Channels	2		
Samples	200	200	
Date	2015/08/17	2015/08/17	
Time	12:15:29.3416409492492675781	12:15:29.3416409492492675781	
Y_Unit_Label	V	V	
X_Dimension	Time	Time	
X0	0.0000000000000000E+0	0.0000000000000000E+0	
Delta_X	1.000000E-5	1.000000E-5	
***End_of_Header***			
X_Value	Applied Voltage	Sense Voltage	Comment
0.000000	-4.744137	-1.845612
1.000000E-5	-3.849006	-1.557259
2.000000E-5	-3.581105	-1.804842
3.000000E-5	-2.554149	-1.624333
4.000000E-5	-2.532887	-1.647020
5.000000E-5	-1.797221	-1.733164
6.000000E-5	-1.503805	-1.458621
7.000000E-5	-1.036041	-1.814048
8.000000E-5	0.197156	-1.626964
9.000000E-5	0.063205	-1.399438
1.000000E-4	0.365126	-2.142185
0.000110	1.277266	-2.644255
0.000120	1.751409	-2.277977
0.000130	2.312726	-1.922879
0.000140	2.731588	-1.591125
0.000150	3.271643	-1.333350
0.000160	3.505525	-1.583234
0.000170	4.124249	-2.529505
0.000180	5.361698	-2.589346
0.000190	5.068282	-2.212876
0.000200	5.957034	-1.869285
0.000210	6.403536	-1.552656
0.000220	6.960600	-1.286333
0.000230	7.183851	-1.519777
0.000240	7.781313	-2.450923
0.000250	8.988994	-2.539369
0.000260	8.714715	-2.162241
0.000270	9.637485	-1.811089
0.000280	10.079735	-1.508598
0.000290	10.600653	-1.238329
0.000300	10.849419	-1.490843
0.000310	11.400104	-2.445663
0.000320	12.848045	-2.431853
0.000330	12.380282	-2.072152
0.000340	13.266907	-1.732178
0.000350	13.747427	-1.418508
0.000360	14.242832	-1.203805
0.000370	14.506480	-1.613812
0.000380	15.135835	-2.320721
0.000390	16.696464	-2.232275
0.000400	16.192555	-1.886383
0.000410	16.855929	-1.564822
0.000420	17.402362	-1.257399
0.000430	17.836106	-1.191969
0.000440	18.439947	-1.906439
0.000450	19.009768	-2.358203
0.000460	19.443512	-2.023490
0.000470	20.126021	-1.676941
0.000480	20.506611	-1.369189
0.000490	21.044539	-1.118648
0.000500	21.361342	-1.384971
0.000510	21.914153	-2.329269
0.000520	23.506675	-2.091551
0.000530	22.958116	-1.769003
0.000540	23.666140	-1.454347
0.000550	24.210446	-1.159418
0.000560	24.614424	-1.134759
0.000570	25.241652	-1.860079
0.000580	25.805094	-2.164872
0.000590	25.990073	-1.165336
0.000600	25.273545	-0.536353
0.000610	25.080061	-0.643869
0.000620	24.391173	-0.803334
0.000630	23.980817	-0.980225
0.000640	23.434384	-1.150541
0.000650	22.917718	-1.288634
0.000660	22.384043	-1.461580
0.000670	21.858872	-1.391547
0.000680	21.860998	-1.107797
0.000690	20.748997	-1.288634
0.000700	20.208943	-1.458292
0.000710	19.924033	-1.314609
0.000720	18.890701	-1.275154
0.000730	18.792895	-1.374778
0.000740	18.229453	-1.382012
0.000750	17.666011	-1.330062
0.000760	17.108947	-1.366559
0.000770	16.639057	-1.401740
0.000780	16.118138	-1.368203
0.000790	15.550444	-1.392533
0.000800	15.050787	-1.409302
0.000810	14.568140	-1.401740
0.000820	13.979183	-1.414234
0.000830	13.502915	-1.427714
0.000840	12.977744	-1.433961
0.000850	12.424932	-1.440866
0.000860	11.935906	-1.445469
0.000870	11.389473	-1.455991
0.000880	10.874933	-1.459936
0.000890	10.371024	-1.469471
0.000900	9.816086	-1.474074
0.000910	9.316429	-1.486897
0.000920	8.789132	-1.496432
0.000930	8.246951	-1.500049
0.000940	7.747294	-1.510899
0.000950	7.213618	-1.518133
0.000960	6.696951	-1.504981
0.000970	6.131382	-1.544765
0.000980	5.661492	-1.546080
0.000990	5.125689	-1.532929
0.001000	4.562246	-1.566466
0.001010	4.100861	-1.565150
0.001020	3.565058	-1.563178
0.001030	2.971848	-1.586522
0.001040	2.548734	-1.590468
0.001050	1.964029	-1.589810
0.001060	1.445236	-1.605592
0.001070	0.968967	-1.614470
0.001080	0.394893	-1.616771
0.001090	-0.062241	-1.629923
0.001100	-0.621432	-1.616114
0.001110	-1.129594	-1.648993
0.001120	-1.588853	-1.655898
0.001130	-2.177811	-1.647678
0.001140	-2.683847	-1.662802
0.001150	-3.177126	-1.678585
0.001160	-3.729939	-1.676612
0.001170	-4.235975	-1.686804
0.001180	-4.776031	-1.701271
0.001190	-5.282067	-1.700943
0.001200	-5.811491	-1.712122
0.001210	-6.340916	-1.717711
0.001220	-6.855457	-1.725931
0.001230	-7.384882	-1.738096
0.001240	-7.905802	-1.739083
0.001250	-8.424595	-1.751577
0.001260	-8.958273	-1.764071
0.001270	-9.451552	-1.758482
0.001280	-10.008617	-1.776237
0.001290	-10.514654	-1.789388
0.001300	-11.027069	-1.782484
0.001310	-11.584135	-1.808458
0.001320	-12.058279	-1.801883
0.001330	-12.602587	-1.807801
0.001340	-13.149022	-1.826542
0.001350	-13.604030	-1.827528
0.001360	-14.184484	-1.836077
0.001370	-14.688395	-1.842324
0.001380	-15.190180	-1.856134
0.001390	-15.745119	-1.854490
0.001400	-16.229895	-1.866655
0.001410	-16.780582	-1.875533
0.001420	-17.295124	-1.880793
0.001430	-17.796909	-1.891972
0.001440	-18.349723	-1.906110
0.001450	-18.849382	-1.899863
0.001460	-19.395817	-1.921893
0.001470	-19.882719	-1.923208
0.001480	-20.405766	-1.920906
0.001490	-20.967085	-1.941949
0.001500	-21.443356	-1.949183
0.001510	-21.977034	-1.949840
0.001520	-22.521343	-1.964965
0.001530	-22.995488	-1.968253
0.001540	-23.558933	-1.975157
0.001550	-24.077729	-1.985679
0.001560	-24.568883	-1.997844
0.001570	-25.121698	-1.999817
0.001580	-25.625610	-2.004420
0.001590	-26.095502	-2.317104
0.001600	-25.085552	-2.020202
0.001610	-24.832533	-1.911371
0.001620	-24.509349	-2.113580
0.001630	-23.833215	-1.826213
0.001640	-23.524914	-2.117525
0.001650	-22.544732	-1.853832
0.001660	-22.366130	-2.071165
0.001670	-21.373191	-1.901178
0.001680	-21.345550	-1.987651
0.001690	-20.418523	-1.959704
0.001700	-20.324970	-1.859422
0.001710	-19.691360	-1.988638
0.001720	-19.193827	-1.809445
0.001730	-18.819615	-2.044204
0.001740	-17.967006	-1.763414
0.001750	-17.750132	-2.025792
0.001760	-16.701912	-1.800567
0.001770	-16.625369	-1.954772
0.001780	-15.691964	-1.854161
0.001790	-15.621800	-1.809774
0.001800	-14.920151	-1.916303
0.001810	-14.539561	-1.741713
0.001820	-14.124950	-1.982062
0.001830	-13.312740	-1.690421
0.001840	-13.044838	-1.951484
0.001850	-12.051900	-1.726260
0.001860	-11.934959	-1.892959
0.001870	-10.944147	-1.791690
0.001880	-10.946274	-1.743686
0.001890	-10.210607	-1.832460
0.001900	-9.853405	-1.685160
0.001910	-9.404775	-1.909727
0.001920	-8.620206	-1.614798
0.001930	-8.379945	-1.892301
0.001940	-7.327474	-1.656227
0.001950	-7.231795	-1.823912
0.001960	-6.266499	-1.710478
0.001970	-6.204839	-1.666748
0.001980	-5.537211	-1.785114
0.001990	-5.354358	-1.692558

