LabVIEW Measurement	
Writer_Version	2
Reader_Version	2
Separator	Tab
Decimal_Separator	.
Multi_Headings	Yes
X_Columns	One
Time_Pref	Relative
Operator	e014
Description	Hysteresis Loop Data
Date	2015/08/17
Time	12:16:40.284698486328125
***End_of_Header***	
	
Channels	2		
Samples	200	200	
Date	2015/08/17	2015/08/17	
Time	12:16:40.284698486328125	12:16:40.284698486328125	
Y_Unit_Label	V	V	
X_Dimension	Time	Time	
X0	0.0000000000000000E+0	0.0000000000000000E+0	
Delta_X	1.000000E-5	1.000000E-5	
***End_of_Header***			
X_Value	Applied Voltage	Sense Voltage	Comment
0.000000	-20.293077	-0.831939
1.000000E-5	-19.727505	-0.603756
2.000000E-5	-19.217216	-0.390040
3.000000E-5	-18.713304	-0.262796
4.000000E-5	-18.375237	-0.936167
5.000000E-5	-17.380172	-1.581261
6.000000E-5	-17.084630	-1.321843
7.000000E-5	-16.521185	-1.055519
8.000000E-5	-16.140594	-0.808595
9.000000E-5	-15.568644	-0.585343
1.000000E-4	-15.056229	-0.370312
0.000110	-14.539561	-0.221697
0.000120	-14.122824	-0.520242
0.000130	-13.652933	-1.348146
0.000140	-12.560063	-1.114702
0.000150	-12.394219	-0.870737
0.000160	-11.968978	-0.643211
0.000170	-11.401281	-0.433440
0.000180	-10.876109	-0.234520
0.000190	-10.397713	-0.149362
0.000200	-10.038384	-0.916110
0.000210	-8.273635	-0.904931
0.000220	-9.109233	-0.669515
0.000230	-8.231111	-0.457114
0.000240	-7.737832	-0.262139
0.000250	-7.236048	-0.108263
0.000260	-6.810807	-0.393656
0.000270	-6.338790	-1.180790
0.000280	-5.352231	-0.965429
0.000290	-5.063068	-0.732972
0.000300	-4.665468	-0.514981
0.000310	-4.074384	-0.315075
0.000320	-3.570474	-0.130950
0.000330	-3.068690	-0.038887
0.000340	-2.732750	-0.793141
0.000350	-1.620746	-1.165008
0.000360	-1.778085	-0.923344
0.000370	-0.859566	-0.694503
0.000380	-0.447083	-0.481116
0.000390	0.086594	-0.246357
0.000400	0.573494	-0.062232
0.000410	1.051889	0.018980
0.000420	1.336800	-0.773085
0.000430	2.455182	-1.218272
0.000440	2.425415	-0.971677
0.000450	3.278021	-0.739219
0.000460	3.696883	-0.522872
0.000470	4.219928	-0.319678
0.000480	4.753604	-0.131936
0.000490	5.276650	0.035091
0.000500	5.729530	-0.003378
0.000510	5.650861	-0.471252
0.000520	7.179599	-0.306197
0.000530	7.436869	-0.116154
0.000540	7.847225	0.060408
0.000550	8.372396	0.115646
0.000560	8.472328	-0.412726
0.000570	10.122259	-0.255563
0.000580	9.967046	-0.079987
0.000590	10.470955	0.097233
0.000600	10.991874	0.157731
0.000610	11.136455	-0.419631
0.000620	12.839541	-0.249973
0.000630	12.539747	-0.071438
0.000640	13.081927	0.099864
0.000650	13.632613	0.201132
0.000660	14.070610	-0.037901
0.000670	15.214504	0.113015
0.000680	15.144340	0.225792
0.000690	15.612103	-0.002391
0.000700	16.494476	0.087369
0.000710	16.704969	0.233683
0.000720	17.215257	0.153457
0.000730	17.910523	0.042325
0.000740	18.254967	0.213298
0.000750	18.850303	0.269192
0.000760	19.271290	0.057778
0.000770	20.128148	0.166938
0.000780	20.410932	0.292537
0.000790	20.836171	0.213626
0.000800	21.656883	0.130441
0.000810	21.912027	0.281687
0.000820	22.473343	0.301743
0.000830	23.007019	0.109399
0.000840	23.629994	0.261630
0.000850	24.102010	0.358624
0.000860	24.503861	0.156087
0.000870	25.405369	0.226778
0.000880	25.598853	0.359282
0.000890	26.075121	0.546695
0.000900	25.394738	0.262945
0.000910	25.007770	0.011747
0.000920	24.578278	-0.028695
0.000930	24.739869	0.727860
0.000940	22.915592	0.530255
0.000950	22.932602	0.299442
0.000960	22.507362	0.041009
0.000970	21.905649	-0.128319
0.000980	22.228831	0.574313
0.000990	19.819849	0.512500
0.001000	20.459834	0.268206
0.001010	19.890013	0.017007
0.001020	19.279795	-0.177967
0.001030	19.588093	0.539461
0.001040	17.168480	0.480278
0.001050	17.859495	0.240259
0.001060	17.274790	-0.007981
0.001070	16.677329	-0.240109
0.001080	16.932472	0.503951
0.001090	14.525616	0.442467
0.001100	15.263407	0.209023
0.001110	14.659567	-0.028366
0.001120	14.064231	-0.281209
0.001130	14.276851	0.471730
0.001140	11.876373	0.407286
0.001150	12.675823	0.174171
0.001160	12.048595	-0.060259
0.001170	11.451133	-0.308170
0.001180	11.640365	0.389531
0.001190	9.282410	0.327389
0.001200	10.058473	0.108083
0.001210	9.431244	-0.134238
0.001220	8.846539	-0.331843
0.001230	9.144207	0.446741
0.001240	7.179599	0.233354
0.001250	7.260394	0.001225
0.001260	6.854290	-0.241753
0.001270	6.231313	-0.165473
0.001280	5.995305	0.342185
0.001290	5.414853	0.118276
0.001300	4.530353	-0.111880
0.001310	4.207171	-0.366038
0.001320	3.828707	0.121235
0.001330	2.187280	0.231381
0.001340	3.003741	0.004185
0.001350	2.004427	-0.229259
0.001360	1.545168	-0.444619
0.001370	1.674866	0.239601
0.001380	-0.525752	0.110056
0.001390	0.105729	-0.147718
0.001400	-0.455588	-0.398588
0.001410	-0.950993	-0.120428
0.001420	-1.775959	0.167924
0.001430	-1.695163	-0.055656
0.001440	-2.688100	-0.276606
0.001450	-3.104835	-0.492295
0.001460	-3.311077	0.019638
0.001470	-5.288445	0.031474
0.001480	-4.423081	-0.190790
0.001490	-5.197019	-0.419960
0.001500	-5.722191	-0.521557
0.001510	-5.530833	0.092630
0.001520	-7.257310	-0.068808
0.001530	-7.342358	-0.289757
0.001540	-7.754841	-0.520242
0.001550	-8.314033	-0.428508
0.001560	-8.288518	0.073231
0.001570	-9.579124	-0.110565
0.001580	-10.006491	-0.330199
0.001590	-10.367946	-0.550820
0.001600	-10.937769	-0.689900
0.001610	-10.731527	0.079478
0.001620	-12.755674	-0.078343
0.001630	-12.485646	-0.297977
0.001640	-12.983178	-0.505446
0.001650	-13.559380	-0.734945
0.001660	-13.944223	-0.230246
0.001670	-15.270975	0.000568
0.001680	-14.694774	-0.215779
0.001690	-15.730236	-0.423577
0.001700	-16.138468	-0.636964
0.001710	-16.665767	-0.840488
0.001720	-16.572214	-0.073411
0.001730	-18.900411	-0.072424
0.001740	-18.054180	-0.275290
0.001750	-18.730314	-0.478814
0.001760	-19.302264	-0.690229
0.001770	-19.778534	-0.884875
0.001780	-19.659467	-0.100043
0.001790	-21.985539	-0.118456
0.001800	-21.196715	-0.317705
0.001810	-21.853714	-0.522544
0.001820	-22.415033	-0.716203
0.001830	-22.908313	-0.932221
0.001840	-22.959342	-0.144430
0.001850	-25.176979	-0.142129
0.001860	-24.220185	-0.345652
0.001870	-25.011135	-0.537997
0.001880	-25.529930	-0.739219
0.001890	-26.055104	-1.428372
0.001900	-24.613533	-1.463224
0.001910	-25.240765	-1.176844
0.001920	-24.390281	-0.913480
0.001930	-23.905506	-0.670501
0.001940	-23.388837	-0.458100
0.001950	-22.880673	-0.322966
0.001960	-22.527722	-0.993706
0.001970	-21.566676	-1.556931
0.001980	-21.358307	-1.273510
0.001990	-20.998978	-0.771934

