LabVIEW Measurement	
Writer_Version	2
Reader_Version	2
Separator	Tab
Decimal_Separator	.
Multi_Headings	Yes
X_Columns	One
Time_Pref	Relative
Operator	e014
Description	Hysteresis Loop Data
Date	2015/08/17
Time	12:18:05.7145848274230957031
***End_of_Header***	
	
Channels	2		
Samples	200	200	
Date	2015/08/17	2015/08/17	
Time	12:18:05.7145848274230957031	12:18:05.7145848274230957031	
Y_Unit_Label	V	V	
X_Dimension	Time	Time	
X0	0.0000000000000000E+0	0.0000000000000000E+0	
Delta_X	1.000000E-5	1.000000E-5	
***End_of_Header***			
X_Value	Applied Voltage	Sense Voltage	Comment
0.000000	8.113000	-0.160212
1.000000E-5	7.651615	-0.360777
2.000000E-5	7.889749	0.345144
3.000000E-5	5.763549	0.224477
4.000000E-5	6.107994	0.000239
5.000000E-5	5.597706	-0.230574
6.000000E-5	5.032137	-0.164158
7.000000E-5	4.870545	0.365529
8.000000E-5	4.081725	0.141292
9.000000E-5	3.326924	-0.079000
1.000000E-4	2.967596	-0.323952
0.000110	2.642287	0.220202
0.000120	0.818007	0.275111
0.000130	1.742904	0.051531
0.000140	0.813754	-0.168761
0.000150	0.320476	-0.341707
0.000160	0.633027	0.382298
0.000170	-1.331583	0.226778
0.000180	-1.229525	0.002869
0.000190	-1.659018	-0.218080
0.000200	-2.247976	-0.156925
0.000210	-2.339403	0.393477
0.000220	-3.245165	0.172527
0.000230	-3.948938	-0.052039
0.000240	-4.274247	-0.289757
0.000250	-4.748390	0.071587
0.000260	-5.864646	0.317854
0.000270	-5.462794	0.092630
0.000280	-6.523769	-0.118784
0.000290	-6.942631	-0.324938
0.000300	-6.887350	0.278070
0.000310	-9.149631	0.237957
0.000320	-8.328916	0.013062
0.000330	-9.007175	-0.217423
0.000340	-9.564241	-0.134238
0.000350	-9.591881	0.395778
0.000360	-10.644353	0.154443
0.000370	-11.250321	-0.057958
0.000380	-11.603271	-0.307512
0.000390	-12.007250	0.126825
0.000400	-13.419050	0.304373
0.000410	-12.789693	0.074218
0.000420	-13.801767	-0.143115
0.000430	-14.248270	-0.326254
0.000440	-14.056912	0.345473
0.000450	-16.253283	0.215270
0.000460	-15.734488	-0.008638
0.000470	-16.297933	-0.247014
0.000480	-16.844368	-0.153965
0.000490	-17.156921	0.345473
0.000500	-17.679968	0.139976
0.000510	-18.560217	-0.085576
0.000520	-18.908915	-0.329870
0.000530	-19.202332	0.230395
0.000540	-21.098910	0.280043
0.000550	-20.129359	0.060408
0.000560	-21.056386	-0.167117
0.000570	-21.553918	-0.365380
0.000580	-21.283890	0.332650
0.000590	-23.339934	0.207708
0.000600	-23.086915	-0.006337
0.000610	-23.569565	-0.254248
0.000620	-24.152146	-0.140156
0.000630	-24.473204	0.345144
0.000640	-24.957980	0.129455
0.000650	-25.846735	-0.085576
0.000660	-26.010454	-1.115688
0.000670	-24.590145	-1.211368
0.000680	-25.102562	-0.950634
0.000690	-24.249952	-0.722122
0.000700	-23.777933	-0.504789
0.000710	-23.254886	-0.311129
0.000720	-22.742469	-0.127333
0.000730	-22.206664	0.044297
0.000740	-21.749530	0.069615
0.000750	-21.730394	-0.846077
0.000760	-20.105970	-1.125224
0.000770	-20.437659	-0.893424
0.000780	-19.529768	-0.658664
0.000790	-19.091769	-0.457771
0.000800	-18.581480	-0.269372
0.000810	-18.043549	-0.084919
0.000820	-17.524755	0.064354
0.000830	-17.091008	0.027529
0.000840	-17.078251	-1.056177
0.000850	-15.064733	-1.060451
0.000860	-15.683460	-0.825034
0.000870	-14.911647	-0.610332
0.000880	-14.390726	-0.412726
0.000890	-13.878311	-0.229917
0.000900	-13.363769	-0.054998
0.000910	-12.830091	0.090329
0.000920	-12.438870	-0.233205
0.000930	-12.079541	-1.106482
0.000940	-10.618838	-0.913151
0.000950	-10.780430	-0.696805
0.000960	-10.265888	-0.489007
0.000970	-9.693939	-0.306855
0.000980	-9.183650	-0.128977
0.000990	-8.656352	0.038379
0.001000	-8.203470	0.083095
0.001010	-8.092908	-0.604085
0.001020	-6.115538	-0.493610
0.001030	-6.698118	-0.309485
0.001040	-6.066636	-0.127333
0.001050	-5.513823	0.033118
0.001060	-5.052437	0.091644
0.001070	-4.890845	-0.780647
0.001080	-3.313203	-1.026914
0.001090	-3.761832	-0.802019
0.001100	-2.836934	-0.591590
0.001110	-2.398936	-0.389711
0.001120	-1.867386	-0.207888
0.001130	-1.354971	-0.042833
0.001140	-0.821294	0.094932
0.001150	-0.421569	-0.163172
0.001160	0.205661	-0.523530
0.001170	0.409776	-0.334145
0.001180	1.336800	-0.154952
0.001190	1.730147	0.015035
0.001200	2.240435	0.097233
0.001210	2.661423	-0.362421
0.001220	4.370888	-0.383792
0.001230	3.652233	-0.203613
0.001240	4.351753	-0.027708
0.001250	4.893934	0.097233
0.001260	5.278776	-0.273646
0.001270	5.946403	-0.995021
0.001280	6.541739	-0.807608
0.001290	7.081793	-0.591919
0.001300	7.473014	-0.394971
0.001310	8.015195	-0.212162
0.001320	8.553123	-0.039545
0.001330	9.071916	0.089342
0.001340	9.478020	-0.181913
0.001350	9.967046	-1.177831
0.001360	11.274658	-1.004885
0.001370	11.127951	-0.769468
0.001380	11.655248	-0.567917
0.001390	12.208060	-0.374257
0.001400	12.726852	-0.185858
0.001410	13.247771	-0.030339
0.001420	13.760185	0.095260
0.001430	14.200308	-0.319349
0.001440	15.399484	-0.509392
0.001450	14.959360	-0.310471
0.001460	15.943790	-0.138841
0.001470	16.371156	0.023912
0.001480	16.881444	0.097233
0.001490	17.187616	-0.473882
0.001500	18.939603	-0.368339
0.001510	18.333637	-0.194736
0.001520	18.962991	-0.020804
0.001530	19.532812	0.093288
0.001540	19.932537	-0.325267
0.001550	21.397487	-0.351899
0.001560	20.748997	-0.171391
0.001570	21.652631	-0.001076
0.001580	22.137404	0.101836
0.001590	22.541382	-0.489007
0.001600	23.415249	-1.173885
0.001610	23.795838	-0.956881
0.001620	24.312504	-0.731657
0.001630	24.710103	-0.522872
0.001640	25.269292	-0.335789
0.001650	25.783832	-0.151664
0.001660	26.136781	0.524337
0.001670	25.069430	0.316868
0.001680	24.831296	0.104795
0.001690	24.425192	-0.127662
0.001700	23.825605	-0.375901
0.001710	23.895769	0.367831
0.001720	21.544195	0.319827
0.001730	22.498858	0.103480
0.001740	21.782329	-0.122730
0.001750	21.204003	-0.364394
0.001760	21.244401	0.301414
0.001770	18.948108	0.265247
0.001780	19.890013	0.051531
0.001790	19.167106	-0.175008
0.001800	18.595159	-0.341378
0.001810	18.873691	0.364872
0.001820	16.964365	0.201461
0.001830	17.013268	-0.017845
0.001840	16.598659	-0.251288
0.001850	15.999071	-0.112209
0.001860	15.614230	0.342514
0.001870	15.257028	0.130770
0.001880	14.285356	-0.091495
0.001890	13.960047	-0.338419
0.001900	13.653875	0.240916
0.001910	11.710529	0.290564
0.001920	12.733231	0.065011
0.001930	11.787072	-0.159226
0.001940	11.302299	-0.346968
0.001950	11.538307	0.347774
0.001960	9.344070	0.223490
0.001970	9.816086	0.003856
0.001980	9.259022	-0.227615
0.001990	8.977300	-0.181091

