LabVIEW Measurement	
Writer_Version	2
Reader_Version	2
Separator	Tab
Decimal_Separator	.
Multi_Headings	Yes
X_Columns	One
Time_Pref	Relative
Operator	e014
Description	Hysteresis Loop Data
Date	2015/08/17
Time	12:02:36.7144494056701660156
***End_of_Header***	
	
Channels	2		
Samples	200	200	
Date	2015/08/17	2015/08/17	
Time	12:02:36.7144494056701660156	12:02:36.7144494056701660156	
Y_Unit_Label	V	V	
X_Dimension	Time	Time	
X0	0.0000000000000000E+0	0.0000000000000000E+0	
Delta_X	1.000000E-5	1.000000E-5	
***End_of_Header***			
X_Value	Applied Voltage	Sense Voltage	Comment
0.000000	-2.509499	-0.000688
1.000000E-5	-1.990705	0.001832
2.000000E-5	-1.471912	0.006874
3.000000E-5	-0.942488	0.006874
4.000000E-5	-0.430073	0.006874
5.000000E-5	0.090846	0.006874
6.000000E-5	0.581998	0.011915
7.000000E-5	1.092287	0.011915
8.000000E-5	1.615332	0.011915
9.000000E-5	2.144756	0.011915
1.000000E-4	2.667802	0.016957
0.000110	3.186595	0.014436
0.000120	3.720271	0.019478
0.000130	4.232685	0.019478
0.000140	4.753604	0.021998
0.000150	5.276650	0.021998
0.000160	5.801821	0.029561
0.000170	6.316361	0.024519
0.000180	6.860669	0.027040
0.000190	7.370956	0.029561
0.000200	7.889749	0.029561
0.000210	8.414920	0.032081
0.000220	8.931587	0.029561
0.000230	9.461011	0.032081
0.000240	9.984056	0.029561
0.000250	10.500722	0.034602
0.000260	11.025893	0.032081
0.000270	11.538307	0.032081
0.000280	12.067731	0.034602
0.000290	12.588649	0.037123
0.000300	13.109568	0.037123
0.000310	13.630487	0.037123
0.000320	14.157784	0.037123
0.000330	14.672324	0.037123
0.000340	15.195368	0.037123
0.000350	15.722666	0.034602
0.000360	16.241458	0.042164
0.000370	16.773007	0.037123
0.000380	17.283295	0.037123
0.000390	17.806340	0.037123
0.000400	18.329384	0.034602
0.000410	18.852429	0.042164
0.000420	19.373347	0.039644
0.000430	19.909149	0.037123
0.000440	20.423689	0.037123
0.000450	20.942481	0.037123
0.000460	21.457021	0.034602
0.000470	21.973687	0.037123
0.000480	22.511615	0.032081
0.000490	23.045290	0.037123
0.000500	23.551325	0.034602
0.000510	24.076496	0.034602
0.000520	24.597414	0.034602
0.000530	25.116206	0.032081
0.000540	25.639251	0.032081
0.000550	26.155917	0.032081
0.000560	25.405369	0.032081
0.000570	25.001392	0.024519
0.000580	24.448580	0.027040
0.000590	23.934041	0.027040
0.000600	23.413122	0.024519
0.000610	22.898583	0.021998
0.000620	22.350024	0.019478
0.000630	21.837610	0.019478
0.000640	21.316692	0.019478
0.000650	20.793647	0.016957
0.000660	20.281234	0.019478
0.000670	19.753937	0.019478
0.000680	19.220261	0.016957
0.000690	18.705721	0.016957
0.000700	18.184803	0.011915
0.000710	17.659632	0.011915
0.000720	17.140840	0.011915
0.000730	16.626300	0.011915
0.000740	16.094750	0.006874
0.000750	15.575958	0.011915
0.000760	15.055039	0.006874
0.000770	14.529868	0.004353
0.000780	14.015328	0.006874
0.000790	13.485905	0.001832
0.000800	12.971365	-0.000688
0.000810	12.452572	0.001832
0.000820	11.933780	0.001832
0.000830	11.397978	-0.003209
0.000840	10.881312	-0.005730
0.000850	10.373150	-0.003209
0.000860	9.839474	-0.008251
0.000870	9.320681	-0.003209
0.000880	8.787005	-0.003209
0.000890	8.278844	-0.000688
0.000900	7.747294	-0.005730
0.000910	7.230627	-0.003209
0.000920	6.707582	-0.003209
0.000930	6.169654	-0.008251
0.000940	5.661492	-0.010771
0.000950	5.127816	-0.010771
0.000960	4.609023	-0.010771
0.000970	4.096608	-0.013292
0.000980	3.569311	-0.015813
0.000990	3.039887	-0.018334
0.001000	2.525346	-0.018334
0.001010	2.000175	-0.018334
0.001020	1.479255	-0.023375
0.001030	0.958336	-0.023375
0.001040	0.439543	-0.025896
0.001050	-0.083503	-0.028417
0.001060	-0.557645	-0.030937
0.001070	-1.082817	-0.035979
0.001080	-1.607989	-0.030937
0.001090	-2.133161	-0.030937
0.001100	-2.645576	-0.030937
0.001110	-3.170748	-0.033458
0.001120	-3.693793	-0.033458
0.001130	-4.206208	-0.038500
0.001140	-4.746264	-0.038500
0.001150	-5.258679	-0.043541
0.001160	-5.781724	-0.043541
0.001170	-6.302644	-0.043541
0.001180	-6.829943	-0.043541
0.001190	-7.340231	-0.046062
0.001200	-7.871782	-0.046062
0.001210	-8.396955	-0.046062
0.001220	-8.905117	-0.048583
0.001230	-9.438795	-0.051104
0.001240	-9.957589	-0.051104
0.001250	-10.478509	-0.056145
0.001260	-11.001555	-0.053624
0.001270	-11.524601	-0.056145
0.001280	-12.039143	-0.061187
0.001290	-12.562189	-0.058666
0.001300	-13.080984	-0.058666
0.001310	-13.608282	-0.061187
0.001320	-14.118572	-0.061187
0.001330	-14.650123	-0.066228
0.001340	-15.168918	-0.063707
0.001350	-15.685586	-0.066228
0.001360	-16.212885	-0.068749
0.001370	-16.723175	-0.071270
0.001380	-17.254726	-0.068749
0.001390	-17.765016	-0.071270
0.001400	-18.290189	-0.076311
0.001410	-18.808984	-0.073790
0.001420	-19.332031	-0.071270
0.001430	-19.838068	-0.073790
0.001440	-20.375999	-0.078832
0.001450	-20.886289	-0.073790
0.001460	-21.413589	-0.076311
0.001470	-21.928131	-0.081353
0.001480	-22.446926	-0.078832
0.001490	-22.969973	-0.078832
0.001500	-23.488769	-0.081353
0.001510	-24.011816	-0.081353
0.001520	-24.534864	-0.083873
0.001530	-25.045154	-0.088915
0.001540	-25.576707	-0.083873
0.001550	-26.091250	-0.111602
0.001560	-25.327940	-0.106560
0.001570	-24.932465	-0.101519
0.001580	-24.383903	-0.098998
0.001590	-23.867234	-0.098998
0.001600	-23.342060	-0.098998
0.001610	-22.823265	-0.091436
0.001620	-22.310849	-0.091436
0.001630	-21.783549	-0.088915
0.001640	-21.275385	-0.086394
0.001650	-20.739581	-0.083873
0.001660	-20.227164	-0.083873
0.001670	-19.704117	-0.078832
0.001680	-19.189575	-0.073790
0.001690	-18.668654	-0.071270
0.001700	-18.151986	-0.071270
0.001710	-17.624686	-0.066228
0.001720	-17.103766	-0.061187
0.001730	-16.584971	-0.061187
0.001740	-16.070429	-0.058666
0.001750	-15.551635	-0.058666
0.001760	-15.028588	-0.056145
0.001770	-14.514046	-0.056145
0.001780	-13.988873	-0.053624
0.001790	-13.461574	-0.048583
0.001800	-12.949159	-0.048583
0.001810	-12.419734	-0.043541
0.001820	-11.903066	-0.041020
0.001830	-11.388524	-0.038500
0.001840	-10.854847	-0.038500
0.001850	-10.342432	-0.035979
0.001860	-9.813007	-0.035979
0.001870	-9.294213	-0.033458
0.001880	-8.779671	-0.028417
0.001890	-8.250247	-0.025896
0.001900	-7.737832	-0.015813
0.001910	-7.208407	-0.015813
0.001920	-6.687487	-0.013292
0.001930	-6.160189	-0.010771
0.001940	-5.637143	-0.010771
0.001950	-5.122602	-0.010771
0.001960	-4.599556	-0.008251
0.001970	-4.070131	-0.003209
0.001980	-3.559843	-0.000688
0.001990	-3.297257	-0.001949

