LabVIEW Measurement	
Writer_Version	2
Reader_Version	2
Separator	Tab
Decimal_Separator	.
Multi_Headings	Yes
X_Columns	One
Time_Pref	Relative
Operator	e014
Description	Hysteresis Loop Data
Date	2015/08/17
Time	12:17:31.28261566162109375
***End_of_Header***	
	
Channels	2		
Samples	200	200	
Date	2015/08/17	2015/08/17	
Time	12:17:31.28261566162109375	12:17:31.28261566162109375	
Y_Unit_Label	V	V	
X_Dimension	Time	Time	
X0	0.0000000000000000E+0	0.0000000000000000E+0	
Delta_X	1.000000E-5	1.000000E-5	
***End_of_Header***			
X_Value	Applied Voltage	Sense Voltage	Comment
0.000000	-23.135818	-1.596386
1.000000E-5	-23.031634	-1.310006
2.000000E-5	-22.278956	-1.043025
3.000000E-5	-21.883481	-0.797087
4.000000E-5	-21.337045	-0.569232
5.000000E-5	-20.805493	-0.357489
6.000000E-5	-20.305834	-0.206572
7.000000E-5	-19.865709	-0.528462
8.000000E-5	-18.898284	-0.651431
9.000000E-5	-19.055624	-0.433769
1.000000E-4	-18.122219	-0.231232
0.000110	-17.760763	-0.190790
0.000120	-17.378046	-0.708312
0.000130	-15.917342	-0.527476
0.000140	-16.189497	-0.315403
0.000150	-15.630304	-0.138183
0.000160	-15.209316	-0.368010
0.000170	-14.713909	-1.535559
0.000180	-13.251080	-1.452374
0.000190	-13.735855	-1.186379
0.000200	-12.985304	-0.930906
0.000210	-12.470763	-0.700421
0.000220	-11.966852	-0.485719
0.000230	-11.437427	-0.284168
0.000240	-10.912254	-0.109907
0.000250	-10.461499	-0.127662
0.000260	-10.472130	-0.818130
0.000270	-8.294897	-0.883231
0.000280	-8.996544	-0.652417
0.000290	-8.316159	-0.443962
0.000300	-7.761220	-0.241425
0.000310	-7.255183	-0.064533
0.000320	-6.789545	-0.019160
0.000330	-6.719380	-0.927618
0.000340	-4.625070	-0.894739
0.000350	-5.445784	-0.660637
0.000360	-4.614439	-0.453497
0.000370	-4.114781	-0.259837
0.000380	-3.598114	-0.071767
0.000390	-3.077195	0.053504
0.000400	-2.656207	-0.370970
0.000410	-1.204011	-0.419960
0.000420	-1.856755	-0.230574
0.000430	-0.927605	-0.039874
0.000440	-0.461966	0.090657
0.000450	-0.070745	-0.207888
0.000460	0.486319	-1.203477
0.000470	1.728021	-1.060122
0.000480	1.534537	-0.817801
0.000490	2.089475	-0.596851
0.000500	2.640161	-0.392670
0.000510	3.156828	-0.202956
0.000520	3.686252	-0.022448
0.000530	4.200792	0.134058
0.000540	4.643042	0.113015
0.000550	4.632411	-0.394971
0.000560	5.772054	-0.202956
0.000570	6.414167	-0.021461
0.000580	6.794756	0.130441
0.000590	7.311423	0.206393
0.000600	7.579324	-0.007652
0.000610	8.602026	0.147539
0.000620	8.933713	0.231710
0.000630	9.288788	0.046928
0.000640	10.177540	0.127482
0.000650	10.447567	0.246835
0.000660	10.891943	0.022926
0.000670	11.787072	0.082438
0.000680	11.950790	0.237299
0.000690	12.516358	0.202119
0.000700	13.086180	0.050544
0.000710	13.690020	0.207379
0.000720	14.140774	0.305360
0.000730	14.566014	0.103480
0.000740	15.450512	0.171541
0.000750	15.643996	0.308648
0.000760	16.137274	0.234669
0.000770	16.860182	0.136360
0.000780	17.211004	0.290564
0.000790	17.789330	0.345473
0.000800	18.199686	0.130441
0.000810	19.033156	0.248478
0.000820	19.349959	0.372763
0.000830	19.800713	0.283002
0.000840	20.512989	0.186665
0.000850	20.851055	0.342185
0.000860	21.435759	0.397093
0.000870	21.875882	0.188638
0.000880	22.711477	0.295167
0.000890	23.009145	0.409259
0.000900	23.455646	0.341527
0.000910	24.148787	0.228093
0.000920	24.548512	0.375722
0.000930	25.122585	0.451344
0.000940	25.564834	0.259657
0.000950	26.417439	0.683473
0.000960	24.488978	0.628564
0.000970	25.407495	0.371776
0.000980	24.614424	0.104138
0.000990	24.078622	-0.014228
0.001000	24.393299	0.625605
0.001010	22.158666	0.633167
0.001020	22.541382	0.370132
0.001030	22.048104	0.113673
0.001040	21.452769	-0.139170
0.001050	21.737679	0.705173
0.001060	19.230892	0.596342
0.001070	20.079245	0.350405
0.001080	19.403114	0.106111
0.001090	18.829041	-0.163500
0.001100	18.956613	0.627249
0.001110	16.509359	0.574971
0.001120	17.549070	0.331335
0.001130	16.781512	0.088027
0.001140	16.222322	-0.183228
0.001150	16.237206	0.557216
0.001160	13.892009	0.546695
0.001170	14.967865	0.308977
0.001180	14.157784	0.064025
0.001190	13.617729	-0.209203
0.001200	13.526303	0.484881
0.001210	11.302299	0.517103
0.001220	12.395165	0.275440
0.001230	11.529802	0.041667
0.001240	11.004631	-0.223999
0.001250	10.826030	0.407615
0.001260	8.746608	0.494745
0.001270	9.805455	0.258342
0.001280	8.899694	0.021282
0.001290	8.402163	-0.239781
0.001300	8.115126	0.302729
0.001310	6.301478	0.435562
0.001320	7.251889	0.207379
0.001330	6.250449	-0.015214
0.001340	5.778433	-0.275948
0.001350	5.510532	0.268206
0.001360	3.607582	0.360268
0.001370	4.621780	0.130113
0.001380	3.656485	-0.096755
0.001390	3.156828	-0.338748
0.001400	3.273769	0.304702
0.001410	0.966841	0.262945
0.001420	1.770545	0.030159
0.001430	1.115675	-0.204600
0.001440	0.554358	-0.236822
0.001450	0.722328	0.332979
0.001460	-0.808537	0.132414
0.001470	-1.040293	-0.096755
0.001480	-1.433641	-0.346639
0.001490	-1.882269	0.033447
0.001500	-3.115466	0.234998
0.001510	-2.637071	0.008788
0.001520	-3.668279	-0.219395
0.001530	-4.095646	-0.430810
0.001540	-4.065879	0.190940
0.001550	-6.245237	0.104467
0.001560	-5.511697	-0.120757
0.001570	-6.151684	-0.357160
0.001580	-6.721506	-0.288771
0.001590	-6.753399	0.216257
0.001600	-7.752715	-0.028695
0.001610	-8.405460	-0.245370
0.001620	-8.764788	-0.492623
0.001630	-9.198534	-0.064533
0.001640	-10.572062	0.071916
0.001650	-9.976724	-0.145417
0.001660	-10.956905	-0.366695
0.001670	-11.416165	-0.588302
0.001680	-11.579883	-0.031654
0.001690	-13.576389	-0.019489
0.001700	-12.725907	-0.235835
0.001710	-13.493467	-0.460073
0.001720	-14.025019	-0.666227
0.001730	-13.973990	0.005171
0.001740	-16.189497	-0.038559
0.001750	-15.402800	-0.250302
0.001760	-16.085313	-0.471909
0.001770	-16.638126	-0.698449
0.001780	-16.961310	-0.098399
0.001790	-18.672906	-0.003049
0.001800	-17.818171	-0.214792
0.001810	-18.753702	-0.425549
0.001820	-19.232099	-0.650116
0.001830	-19.721127	-0.558382
0.001840	-19.682855	0.082766
0.001850	-21.118046	-0.110236
0.001860	-21.400831	-0.321650
0.001870	-21.775044	-0.523201
0.001880	-22.366130	-0.752700
0.001890	-22.823265	-0.549834
0.001900	-23.282526	0.009445
0.001910	-23.709894	-0.175995
0.001920	-24.581640	-0.377874
0.001930	-24.928213	-0.582055
0.001940	-25.483153	-0.805964
0.001950	-25.950920	-0.966745
0.001960	-25.221630	-0.717847
0.001970	-24.940970	-0.484732
0.001980	-24.498718	-0.277921
0.001990	-24.413670	-0.990582

