LabVIEW Measurement	
Writer_Version	2
Reader_Version	2
Separator	Tab
Decimal_Separator	.
Multi_Headings	Yes
X_Columns	One
Time_Pref	Relative
Operator	e014
Description	Hysteresis Loop Data
Date	2015/08/17
Time	12:01:58.9872913360595703125
***End_of_Header***	
	
Channels	2		
Samples	200	200	
Date	2015/08/17	2015/08/17	
Time	12:01:58.9872913360595703125	12:01:58.9872913360595703125	
Y_Unit_Label	V	V	
X_Dimension	Time	Time	
X0	0.0000000000000000E+0	0.0000000000000000E+0	
Delta_X	1.000000E-5	1.000000E-5	
***End_of_Header***			
X_Value	Applied Voltage	Sense Voltage	Comment
0.000000	13.113820	-0.285534
1.000000E-5	13.632613	-0.260326
2.000000E-5	14.164162	-0.230077
3.000000E-5	14.676576	-0.199828
4.000000E-5	15.203873	-0.172100
5.000000E-5	15.720539	-0.141851
6.000000E-5	16.245710	-0.114122
7.000000E-5	16.777260	-0.083873
8.000000E-5	17.289674	-0.056145
9.000000E-5	17.814844	-0.023375
1.000000E-4	18.331511	0.006874
0.000110	18.863060	0.037123
0.000120	19.377600	0.069893
0.000130	19.909149	0.102662
0.000140	20.423689	0.132912
0.000150	20.942481	0.163161
0.000160	21.469778	0.198451
0.000170	21.986444	0.228700
0.000180	22.505236	0.263991
0.000190	23.045290	0.301802
0.000200	23.559830	0.334572
0.000210	24.080748	0.369862
0.000220	24.601667	0.402632
0.000230	25.124711	0.437923
0.000240	25.647755	0.473213
0.000250	26.164421	0.505983
0.000260	25.437262	0.541274
0.000270	25.024780	0.571523
0.000280	24.484726	0.601772
0.000290	23.959555	0.629500
0.000300	23.438637	0.657228
0.000310	22.921971	0.687477
0.000320	22.377664	0.712685
0.000330	21.869503	0.735372
0.000340	21.342206	0.760579
0.000350	20.825540	0.778225
0.000360	20.296117	0.798391
0.000370	19.783704	0.816036
0.000380	19.241523	0.836202
0.000390	18.733362	0.856368
0.000400	18.208191	0.866451
0.000410	17.680894	0.884096
0.000420	17.172733	0.894179
0.000430	16.643309	0.911825
0.000440	16.116012	0.924428
0.000450	15.599346	0.937032
0.000460	15.076301	0.937032
0.000470	14.553257	0.952157
0.000480	14.040843	0.959719
0.000490	13.519924	0.959719
0.000500	12.992627	0.969802
0.000510	12.471708	0.972323
0.000520	11.952916	0.974843
0.000530	11.423492	0.972323
0.000540	10.902574	0.977364
0.000550	10.381655	0.974843
0.000560	9.862862	0.977364
0.000570	9.335565	0.979885
0.000580	8.812520	0.979885
0.000590	8.291601	0.974843
0.000600	7.766430	0.972323
0.000610	7.249763	0.969802
0.000620	6.724592	0.959719
0.000630	6.186663	0.957198
0.000640	5.674249	0.949636
0.000650	5.151204	0.939553
0.000660	4.630285	0.929470
0.000670	4.111492	0.924428
0.000680	3.594825	0.911825
0.000690	3.059023	0.899221
0.000700	2.542356	0.891659
0.000710	2.017184	0.874013
0.000720	1.498391	0.858889
0.000730	0.977472	0.851326
0.000740	0.460805	0.833681
0.000750	-0.066493	0.816036
0.000760	-0.553393	0.803432
0.000770	-1.065808	0.788308
0.000780	-1.597358	0.770662
0.000790	-2.114025	0.750496
0.000800	-2.634945	0.732851
0.000810	-3.155864	0.715206
0.000820	-3.681036	0.695040
0.000830	-4.201956	0.677394
0.000840	-4.727128	0.654708
0.000850	-5.245921	0.634542
0.000860	-5.764715	0.614376
0.000870	-6.287761	0.594210
0.000880	-6.819312	0.569002
0.000890	-7.333853	0.543794
0.000900	-7.856899	0.521108
0.000910	-8.375693	0.495900
0.000920	-8.900865	0.473213
0.000930	-9.423911	0.448006
0.000940	-9.936326	0.420278
0.000950	-10.465751	0.397591
0.000960	-10.988798	0.372383
0.000970	-11.509718	0.344655
0.000980	-12.030638	0.316927
0.000990	-12.551558	0.289198
0.001000	-13.076731	0.258949
0.001010	-13.584894	0.231221
0.001020	-14.116446	0.200972
0.001030	-14.635240	0.170723
0.001040	-15.158287	0.140474
0.001050	-15.679207	0.115266
0.001060	-16.195875	0.082496
0.001070	-16.710417	0.047206
0.001080	-17.235590	0.016957
0.001090	-17.756511	-0.013292
0.001100	-18.279558	-0.046062
0.001110	-18.811110	-0.076311
0.001120	-19.315021	-0.106560
0.001130	-19.833816	-0.141851
0.001140	-20.361115	-0.177141
0.001150	-20.875658	-0.209911
0.001160	-21.400831	-0.245202
0.001170	-21.919626	-0.272930
0.001180	-22.442674	-0.310741
0.001190	-22.963595	-0.346032
0.001200	-23.478138	-0.381322
0.001210	-24.007564	-0.419134
0.001220	-24.530611	-0.454424
0.001230	-25.043028	-0.489715
0.001240	-25.570328	-0.525005
0.001250	-26.086997	-0.585503
0.001260	-25.355581	-0.620794
0.001270	-24.938844	-0.648522
0.001280	-24.407291	-0.676251
0.001290	-23.873612	-0.706500
0.001300	-23.367575	-0.729186
0.001310	-22.838149	-0.754394
0.001320	-22.319354	-0.779602
0.001330	-21.802685	-0.799768
0.001340	-21.277511	-0.824975
0.001350	-20.758716	-0.842620
0.001360	-20.237795	-0.860266
0.001370	-19.716874	-0.880432
0.001380	-19.210837	-0.898077
0.001390	-18.679285	-0.910681
0.001400	-18.158364	-0.923285
0.001410	-17.639570	-0.938409
0.001420	-17.120775	-0.948492
0.001430	-16.593476	-0.963617
0.001440	-16.085313	-0.968658
0.001450	-15.560140	-0.983783
0.001460	-15.039219	-0.988824
0.001470	-14.518299	-0.996386
0.001480	-13.997378	-0.998907
0.001490	-13.472205	-1.006469
0.001500	-12.961916	-1.016552
0.001510	-12.434617	-1.014032
0.001520	-11.926454	-1.021594
0.001530	-11.388524	-1.021594
0.001540	-10.871856	-1.019073
0.001550	-10.346684	-1.019073
0.001560	-9.832142	-1.016552
0.001570	-9.300591	-1.016552
0.001580	-8.779671	-1.011511
0.001590	-8.263004	-1.011511
0.001600	-7.737832	-0.996386
0.001610	-7.225416	-0.988824
0.001620	-6.693866	-0.983783
0.001630	-6.170820	-0.976220
0.001640	-5.649900	-0.968658
0.001650	-5.131106	-0.963617
0.001660	-4.603808	-0.951013
0.001670	-4.087141	-0.940930
0.001680	-3.559843	-0.930847
0.001690	-3.036797	-0.918243
0.001700	-2.515877	-0.908160
0.001710	-2.001336	-0.893035
0.001720	-1.469786	-0.882952
0.001730	-0.955245	-0.870349
0.001740	-0.432200	-0.855224
0.001750	0.090846	-0.840100
0.001760	0.573494	-0.824975
0.001770	1.079530	-0.804809
0.001780	1.619585	-0.789685
0.001790	2.140504	-0.769519
0.001800	2.659297	-0.754394
0.001810	3.188721	-0.734228
0.001820	3.705388	-0.714062
0.001830	4.226307	-0.696417
0.001840	4.751478	-0.678771
0.001850	5.270271	-0.656085
0.001860	5.795442	-0.633398
0.001870	6.312109	-0.610711
0.001880	6.852164	-0.590545
0.001890	7.368830	-0.565337
0.001900	7.887623	-0.542651
0.001910	8.408542	-0.522485
0.001920	8.935839	-0.494756
0.001930	9.450380	-0.469549
0.001940	9.981929	-0.446862
0.001950	10.500722	-0.421654
0.001960	11.023767	-0.396447
0.001970	11.540433	-0.368719
0.001980	12.067731	-0.340990
0.001990	12.323937	-0.325866

