LabVIEW Measurement	
Writer_Version	2
Reader_Version	2
Separator	Tab
Decimal_Separator	.
Multi_Headings	Yes
X_Columns	One
Time_Pref	Relative
Operator	e014
Description	Hysteresis Loop Data
Date	2015/08/19
Time	15:47:24.7352418899536132813
***End_of_Header***	
	
Channels	2		
Samples	182	182	
Date	2015/08/19	2015/08/19	
Time	15:47:24.7352418899536132813	15:47:24.7352418899536132813	
Y_Unit_Label	V	V	
X_Dimension	Time	Time	
X0	0.0000000000000000E+0	0.0000000000000000E+0	
Delta_X	5.000000E-5	5.000000E-5	
***End_of_Header***			
X_Value	Applied Voltage	Sense Voltage	Comment
0.000000	2.263696	-2.289902
5.000000E-5	2.745927	-2.243214
0.000100	3.583256	-2.147206
0.000150	4.300026	-2.096571
0.000200	4.663891	-2.072898
0.000250	5.157082	-2.013715
0.000300	6.099625	-1.929544
0.000350	6.671726	-1.892719
0.000400	7.035591	-1.876937
0.000450	7.660299	-1.808547
0.000500	8.539274	-1.741473
0.000550	9.087264	-1.716485
0.000600	9.457705	-1.704648
0.000650	10.183243	-1.634944
0.000700	10.935084	-1.582995
0.000750	11.419507	-1.570500
0.000800	11.820635	-1.555376
0.000850	12.699610	-1.484356
0.000900	13.304591	-1.450819
0.000950	13.841620	-1.447531
0.001000	14.299739	-1.423201
0.001050	15.119531	-1.356127
0.001100	15.805614	-1.336399
0.001150	16.173862	-1.339029
0.001200	16.745963	-1.303519
0.001250	17.471501	-1.246967
0.001300	18.212382	-1.236445
0.001350	18.501720	-1.243679
0.001400	19.225066	-1.195675
0.001450	20.001018	-1.152932
0.001500	20.516128	-1.149644
0.001550	20.921640	-1.154905
0.001600	21.660329	-1.100982
0.001650	22.495465	-1.071391
0.001700	22.872481	-1.074679
0.001750	23.334984	-1.070733
0.001800	24.174503	-1.010235
0.001850	24.889080	-0.999714
0.001900	25.285824	-1.008262
0.001950	25.713256	-0.993138
0.002000	26.664564	-0.941188
0.002050	27.241049	-0.935270
0.002100	27.287080	-0.920803
0.002150	26.949519	-0.935270
0.002200	26.090272	-0.963546
0.002250	25.298976	-0.991823
0.002300	24.985526	-1.003659
0.002350	24.566863	-1.000371
0.002400	23.567331	-1.035881
0.002450	22.925088	-1.062842
0.002500	22.613830	-1.070076
0.002550	22.030770	-1.072048
0.002600	21.055349	-1.108216
0.002650	20.575311	-1.142410
0.002700	20.253093	-1.139780
0.002750	19.588931	-1.160823
0.002800	18.666117	-1.199621
0.002850	18.199230	-1.228554
0.002900	17.866053	-1.224609
0.002950	16.941047	-1.256173
0.003000	16.307572	-1.296944
0.003050	15.801230	-1.322590
0.003100	15.448325	-1.322590
0.003150	14.556198	-1.363360
0.003200	13.876691	-1.401500
0.003250	13.495291	-1.423858
0.003300	12.995525	-1.434380
0.003350	12.162581	-1.483699
0.003400	11.377860	-1.525127
0.003450	11.167432	-1.540251
0.003500	10.496693	-1.566555
0.003550	9.578262	-1.619820
0.003600	9.082880	-1.664536
0.003650	8.760662	-1.676372
0.003700	8.008820	-1.715827
0.003750	7.132037	-1.774353
0.003800	6.739676	-1.822357
0.003850	6.369235	-1.836166
0.003900	5.520947	-1.890088
0.003950	4.729650	-1.953875
0.004000	4.381129	-1.999906
0.004050	3.975616	-2.022264
0.004100	3.065953	-2.091968
0.004150	2.364526	-2.157069
0.004200	2.007237	-2.201128
0.004250	1.525006	-2.238610
0.004300	0.496976	-2.316206
0.004350	-0.026902	-2.383938
0.004400	-0.186915	-2.403008
0.004450	-1.129458	-2.472054
0.004500	-1.905412	-2.543732
0.004550	-2.190367	-2.593051
0.004600	-2.687942	-2.628561
0.004650	-3.632678	-2.704183
0.004700	-4.191628	-2.776518
0.004750	-4.610292	-2.817289
0.004800	-5.121019	-2.858717
0.004850	-6.067947	-2.933024
0.004900	-6.604978	-2.992865
0.004950	-6.907468	-3.019168
0.005000	-7.613280	-3.066515
0.005050	-8.463762	-3.128986
0.005100	-8.974489	-3.180278
0.005150	-9.270404	-3.194087
0.005200	-10.142805	-3.241433
0.005250	-10.945064	-3.295356
0.005300	-11.354961	-3.333496
0.005350	-11.738555	-3.342702
0.005400	-12.670139	-3.390049
0.005450	-13.364992	-3.437395
0.005500	-13.713514	-3.460411
0.005550	-14.200130	-3.470274
0.005600	-15.109796	-3.520251
0.005650	-15.714778	-3.558391
0.005700	-15.999734	-3.568255
0.005750	-16.633212	-3.586668
0.005800	-17.619596	-3.632041
0.005850	-18.095253	-3.665578
0.005900	-18.375824	-3.663606
0.005950	-19.112325	-3.690567
0.006000	-20.019799	-3.730680
0.006050	-20.396818	-3.755668
0.006100	-20.813291	-3.749092
0.006150	-21.608975	-3.782629
0.006200	-22.400276	-3.815509
0.006250	-22.794830	-3.835894
0.006300	-23.193768	-3.829318
0.006350	-24.123163	-3.864170
0.006400	-24.833360	-3.893762
0.006450	-25.203803	-3.902311
0.006500	-25.648773	-3.904283
0.006550	-26.597896	-3.938478
0.006600	-27.178768	-3.964782
0.006650	-26.874084	-3.965439
0.006700	-26.674615	-3.967412
0.006750	-25.881122	-3.914147
0.006800	-25.120508	-3.899023
0.006850	-24.752258	-3.908229
0.006900	-24.300712	-3.892447
0.006950	-23.371318	-3.839840
0.007000	-22.797022	-3.832606
0.007050	-22.415620	-3.843128
0.007100	-21.867628	-3.809590
0.007150	-20.960153	-3.763559
0.007200	-20.438465	-3.757641
0.007250	-20.068023	-3.767505
0.007300	-19.364401	-3.718843
0.007350	-18.584061	-3.679388
0.007400	-17.976887	-3.676757
0.007450	-17.659052	-3.678073
0.007500	-16.905015	-3.619547
0.007550	-16.111524	-3.587325
0.007600	-15.666555	-3.587325
0.007650	-15.212818	-3.575489
0.007700	-14.414943	-3.507757
0.007750	-13.693787	-3.485399
0.007800	-13.318961	-3.484084
0.007850	-12.799465	-3.452520
0.007900	-11.981863	-3.386761
0.007950	-11.324274	-3.367691
0.008000	-10.997671	-3.365060
0.008050	-4.356027	-2.824193
0.008100	-9.478640	-3.251297
0.008150	-8.994217	-3.232885
0.008200	-8.566784	-3.223021
0.008250	-7.834668	-3.153317
0.008300	-7.067482	-3.097421
0.008350	-6.661969	-3.076379
0.008400	-6.142474	-3.054021
0.008450	-5.340216	-2.971822
0.008500	-4.621252	-2.919872
0.008550	-4.185052	-2.896199
0.008600	-3.737892	-2.855429
0.008650	-2.869875	-2.764024
0.008700	-2.273662	-2.714705
0.008750	-1.819926	-2.689716
0.008800	-1.328927	-2.625930
0.008850	-0.454334	-2.532553
0.008900	0.139687	-2.486521
0.008950	0.435601	-2.463506
0.009000	1.288274	-2.366840
0.009050	1.930518	-2.311603

