LabVIEW Measurement	
Writer_Version	2
Reader_Version	2
Separator	Tab
Decimal_Separator	.
Multi_Headings	Yes
X_Columns	One
Time_Pref	Relative
Operator	e014
Description	Hysteresis Loop Data
Date	2015/08/19
Time	16:17:39.3920345306396484375
***End_of_Header***	
	
Channels	2		
Samples	200	200	
Date	2015/08/19	2015/08/19	
Time	16:17:39.3920345306396484375	16:17:39.3920345306396484375	
Y_Unit_Label	V	V	
X_Dimension	Time	Time	
X0	0.0000000000000000E+0	0.0000000000000000E+0	
Delta_X	1.000000E-5	1.000000E-5	
***End_of_Header***			
X_Value	Applied Voltage	Sense Voltage	Comment
0.000000	-24.616356	-2.068295
1.000000E-5	-24.002604	-2.056458
2.000000E-5	-23.463380	-2.043307
3.000000E-5	-22.926348	-2.026867
4.000000E-5	-22.415620	-2.013058
5.000000E-5	-21.819404	-1.996618
6.000000E-5	-21.302100	-1.984781
7.000000E-5	-20.716845	-1.968341
8.000000E-5	-20.245572	-1.956505
9.000000E-5	-19.649357	-1.940065
1.000000E-4	-19.125477	-1.926256
0.000110	-18.568717	-1.911789
0.000120	-18.011958	-1.896007
0.000130	-17.472734	-1.886143
0.000140	-16.948855	-1.871676
0.000150	-16.354832	-1.853921
0.000160	-15.828760	-1.838797
0.000170	-15.254465	-1.825645
0.000180	-14.726202	-1.813151
0.000190	-14.195746	-1.798026
0.000200	-13.638988	-1.782902
0.000210	-13.071269	-1.767777
0.000220	-12.521086	-1.754625
0.000230	-12.010358	-1.741473
0.000240	-11.427296	-1.726349
0.000250	-10.853001	-1.710567
0.000260	-10.311586	-1.696757
0.000270	-9.689069	-1.682290
0.000280	-9.195877	-1.667824
0.000290	-8.696110	-1.654014
0.000300	-8.106472	-1.636917
0.000310	-7.593553	-1.624423
0.000320	-6.977611	-1.607983
0.000330	-6.490996	-1.598119
0.000340	-5.868478	-1.581679
0.000350	-5.381863	-1.567870
0.000360	-4.827296	-1.552746
0.000370	-4.318761	-1.534991
0.000380	-3.733508	-1.523812
0.000390	-3.246892	-1.508687
0.000400	-2.666023	-1.495535
0.000410	-2.148720	-1.479096
0.000420	-1.495516	-1.463971
0.000430	-1.000133	-1.452792
0.000440	-0.447759	-1.438983
0.000450	0.078312	-1.423858
0.000460	0.562735	-1.410049
0.000470	1.218131	-1.394924
0.000480	1.803384	-1.379142
0.000490	2.279040	-1.364018
0.000500	2.866485	-1.351523
0.000510	3.366252	-1.337056
0.000520	4.030415	-1.321932
0.000530	4.514838	-1.307465
0.000540	5.047484	-1.293656
0.000550	5.547251	-1.279189
0.000560	6.075513	-1.266037
0.000570	6.673918	-1.248940
0.000580	7.199988	-1.236445
0.000590	7.802776	-1.219348
0.000600	8.324462	-1.206196
0.000610	8.879028	-1.191729
0.000620	9.424825	-1.175947
0.000630	9.918016	-1.160823
0.000640	10.503269	-1.144383
0.000650	10.992075	-1.133204
0.000660	11.605823	-1.118737
0.000670	12.151621	-1.102955
0.000680	12.695226	-1.089146
0.000690	13.276095	-1.074679
0.000700	13.839428	-1.061527
0.000710	14.376458	-1.047718
0.000720	14.898143	-1.032593
0.000730	15.450517	-1.016811
0.000740	16.018233	-1.001686
0.000750	16.616638	-0.989192
0.000760	17.101060	-0.974725
0.000770	17.793718	-0.958943
0.000780	18.216766	-0.944476
0.000790	18.823938	-0.928694
0.000800	19.301784	-0.914885
0.000810	19.856349	-0.902391
0.000820	20.338580	-0.885951
0.000830	20.991783	-0.874772
0.000840	21.504700	-0.855702
0.000850	22.129408	-0.845180
0.000860	22.563415	-0.828741
0.000870	23.170587	-0.814931
0.000880	23.676929	-0.799149
0.000890	24.284101	-0.780079
0.000900	24.630430	-0.770873
0.000910	25.349391	-0.755748
0.000920	25.897380	-0.742597
0.000930	26.471672	-0.727472
0.000940	27.006510	-0.711690
0.000950	27.596146	-0.695250
0.000960	25.051285	-0.632122
0.000970	25.458989	-0.611737
0.000980	25.515980	-0.682756
0.000990	25.211298	-0.722869
0.001000	24.733452	-0.745227
0.001010	24.198614	-0.758379
0.001020	23.468693	-0.773503
0.001030	23.025918	-0.793231
0.001040	22.473545	-0.805725
0.001050	21.991315	-0.817562
0.001060	21.419214	-0.832029
0.001070	20.888761	-0.846496
0.001080	20.292549	-0.859647
0.001090	19.764287	-0.878060
0.001100	19.200954	-0.889896
0.001110	18.646389	-0.903048
0.001120	18.137856	-0.916858
0.001130	17.576715	-0.933955
0.001140	17.019958	-0.943161
0.001150	16.524575	-0.962889
0.001160	15.980970	-0.975383
0.001170	15.391334	-0.989192
0.001180	14.869648	-1.006947
0.001190	14.223021	-1.019441
0.001200	13.775861	-1.033251
0.001210	13.153345	-1.046402
0.001220	12.695226	-1.062185
0.001230	12.048599	-1.074679
0.001240	11.579520	-1.091776
0.001250	10.978924	-1.105585
0.001260	10.487925	-1.118737
0.001270	9.727316	-1.133204
0.001280	9.321803	-1.149644
0.001290	8.743126	-1.165426
0.001300	8.236784	-1.177920
0.001310	7.677835	-1.190414
0.001320	7.153957	-1.205539
0.001330	6.566512	-1.218033
0.001340	5.954955	-1.240391
0.001350	5.542867	-1.250255
0.001360	4.856784	-1.263407
0.001370	4.374553	-1.278531
0.001380	3.809027	-1.291683
0.001390	3.230350	-1.296944
0.001400	2.818262	-1.319959
0.001410	2.180402	-1.336399
0.001420	1.669675	-1.348236
0.001430	1.069078	-1.366648
0.001440	0.525472	-1.374539
0.001450	-0.072933	-1.394924
0.001460	-0.522285	-1.402815
0.001470	-1.188641	-1.414652
0.001480	-1.719096	-1.428461
0.001490	-2.225439	-1.452134
0.001500	-2.703286	-1.462656
0.001510	-3.303883	-1.477780
0.001520	-3.849682	-1.492247
0.001530	-4.408632	-1.508687
0.001540	-4.967582	-1.521839
0.001550	-5.491461	-1.536963
0.001560	-6.065755	-1.550115
0.001570	-6.558946	-1.563925
0.001580	-7.155160	-1.577076
0.001590	-7.663695	-1.591543
0.001600	-8.281829	-1.606668
0.001610	-8.764061	-1.621792
0.001620	-9.347123	-1.636917
0.001630	-9.831546	-1.650726
0.001640	-10.465024	-1.659932
0.001650	-10.907800	-1.679660
0.001660	-11.525934	-1.694785
0.001670	-12.047622	-1.708594
0.001680	-12.643836	-1.722403
0.001690	-13.169907	-1.736870
0.001700	-13.748586	-1.750680
0.001710	-14.259313	-1.763174
0.001720	-14.851144	-1.782244
0.001730	-15.377216	-1.792108
0.001740	-15.966854	-1.809205
0.001750	-16.457854	-1.823672
0.001760	-17.058453	-1.838797
0.001770	-17.516574	-1.852606
0.001780	-18.156628	-1.865758
0.001790	-18.671740	-1.880882
0.001800	-19.243843	-1.900610
0.001810	-19.754571	-1.909816
0.001820	-20.304755	-1.924283
0.001830	-20.826443	-1.939408
0.001840	-21.427042	-1.951244
0.001850	-21.926811	-1.965711
0.001860	-22.538370	-1.980178
0.001870	-23.044714	-1.997275
0.001880	-23.608050	-2.010427
0.001890	-24.127547	-2.024237
0.001900	-24.701842	-2.038703
0.001910	-25.260794	-2.052513
0.001920	-25.764947	-2.068295
0.001930	-26.374315	-2.081447
0.001940	-26.865316	-2.095914
0.001950	-27.443996	-2.112353
0.001960	-24.800481	-2.324097
0.001970	-25.346281	-2.111696
0.001980	-25.405464	-2.097886
0.001990	-25.242163	-2.082762

