LabVIEW Measurement	
Writer_Version	2
Reader_Version	2
Separator	Tab
Decimal_Separator	.
Multi_Headings	Yes
X_Columns	One
Time_Pref	Relative
Operator	e014
Description	Hysteresis Loop Data
Date	2015/09/10
Time	10:16:45.5152773857116699219
***End_of_Header***	
	
Channels	4				
Samples	200	200	200	200	
Date	2015/09/10	2015/09/10	2015/09/10	2015/09/10	
Time	10:16:45.5152773857116699219	10:16:45.5152773857116699219	10:16:45.5152773857116699219	10:16:45.5152773857116699219	
Y_Unit_Label	V	V	C	C	
X_Dimension	Time	Time	Time	Time	
X0	0.0000000000000000E+0	0.0000000000000000E+0	0.0000000000000000E+0	0.0000000000000000E+0	
Delta_X	5.000000E-5	5.000000E-5	5.000000E-5	5.000000E-5	
***End_of_Header***					
X_Value	Applied Voltage	Voltage Error	Charge	Charge Error	Comment
0.000000	-26.655585	0.123569	-3.697358E-6	2.220659E-8	Source:  | Sample Length:  | Sample Rate:  | Sense Capacitance: 
5.000000E-5	-26.344385	0.122203	-3.653322E-6	2.194572E-8
0.000100	-25.799492	0.119660	-3.620456E-6	2.177610E-8
0.000150	-25.278574	0.117512	-3.580810E-6	2.156833E-8
0.000200	-24.725906	0.115246	-3.547854E-6	2.148108E-8
0.000250	-24.202708	0.113086	-3.510633E-6	2.136862E-8
0.000300	-23.682529	0.110999	-3.466496E-6	2.109479E-8
0.000350	-23.124215	0.108720	-3.424457E-6	2.090367E-8
0.000400	-22.569919	0.106005	-3.390266E-6	2.079652E-8
0.000450	-22.035754	0.104044	-3.349455E-6	2.042541E-8
0.000500	-21.535424	0.101189	-3.303299E-6	2.020744E-8
0.000550	-20.970248	0.098665	-3.260730E-6	1.997593E-8
0.000600	-20.450438	0.096634	-3.218034E-6	1.971031E-8
0.000650	-19.903808	0.093697	-3.169433E-6	1.939200E-8
0.000700	-19.381349	0.091381	-3.121788E-6	1.908654E-8
0.000750	-18.812764	0.088505	-3.080498E-6	1.877932E-8
0.000800	-18.307330	0.086058	-3.025916E-6	1.852878E-8
0.000850	-17.798705	0.083559	-2.969174E-6	1.810128E-8
0.000900	-17.254073	0.081258	-2.917514E-6	1.775494E-8
0.000950	-16.706358	0.078746	-2.865581E-6	1.746976E-8
0.001000	-16.173931	0.076158	-2.811146E-6	1.714435E-8
0.001050	-15.642612	0.073515	-2.757089E-6	1.677825E-8
0.001100	-15.087165	0.070763	-2.703703E-6	1.647384E-8
0.001150	-14.543337	0.068150	-2.638800E-6	1.605781E-8
0.001200	-14.040358	0.065925	-2.575910E-6	1.565358E-8
0.001250	-13.481220	0.063146	-2.517109E-6	1.529931E-8
0.001300	-12.962736	0.060872	-2.444376E-6	1.483436E-8
0.001350	-12.405466	0.058069	-2.381685E-6	1.446561E-8
0.001400	-11.898100	0.055892	-2.312101E-6	1.406417E-8
0.001450	-11.346693	0.053187	-2.234044E-6	1.355167E-8
0.001500	-10.804560	0.050562	-2.162098E-6	1.313033E-8
0.001550	-10.279387	0.048157	-2.088143E-6	1.269658E-8
0.001600	-9.746591	0.045738	-2.008164E-6	1.222148E-8
0.001650	-9.211971	0.043282	-1.925356E-6	1.172452E-8
0.001700	-8.677482	0.040746	-1.839547E-6	1.119724E-8
0.001750	-8.139735	0.038031	-1.750658E-6	1.060807E-8
0.001800	-7.600425	0.035374	-1.657085E-6	1.000059E-8
0.001850	-7.063200	0.032972	-1.560996E-6	9.415154E-9
0.001900	-6.525453	0.030653	-1.464541E-6	8.875382E-9
0.001950	-5.983407	0.027858	-1.359588E-6	8.193917E-9
0.002000	-5.450894	0.025582	-1.255003E-6	7.597912E-9
0.002050	-4.916709	0.023013	-1.146141E-6	6.926172E-9
0.002100	-4.380374	0.020563	-1.032891E-6	6.248641E-9
0.002150	-3.849989	0.018143	-9.176760E-7	5.564578E-9
0.002200	-3.310354	0.015721	-7.961177E-7	4.836876E-9
0.002250	-2.772629	0.013190	-6.725448E-7	4.121245E-9
0.002300	-2.240985	0.010916	-5.477237E-7	3.385707E-9
0.002350	-1.701892	0.008470	-4.180260E-7	2.623695E-9
0.002400	-1.170618	0.006297	-2.901786E-7	1.926499E-9
0.002450	-0.635391	0.004280	-1.607896E-7	1.277338E-9
0.002500	-0.101293	0.003105	-3.879982E-8	7.034525E-10
0.002550	0.383638	0.004780	8.069145E-8	1.080825E-9
0.002600	0.934697	0.005252	2.117579E-7	1.569009E-9
0.002650	1.460911	0.007394	3.400280E-7	2.172435E-9
0.002700	2.001090	0.009873	4.724083E-7	2.978018E-9
0.002750	2.533580	0.012120	6.036280E-7	3.708537E-9
0.002800	3.068156	0.014573	7.336040E-7	4.486394E-9
0.002850	3.608421	0.017008	8.611845E-7	5.242613E-9
0.002900	4.140998	0.019468	9.839583E-7	5.959682E-9
0.002950	4.677571	0.021889	1.104021E-6	6.668315E-9
0.003000	5.214036	0.024407	1.219184E-6	7.366837E-9
0.003050	5.746200	0.026783	1.329940E-6	8.016317E-9
0.003100	6.279559	0.029292	1.437088E-6	8.660713E-9
0.003150	6.823125	0.031762	1.541437E-6	9.274705E-9
0.003200	7.357288	0.034294	1.641015E-6	9.881452E-9
0.003250	7.890169	0.036714	1.736071E-6	1.044969E-8
0.003300	8.427154	0.039164	1.828464E-6	1.099629E-8
0.003350	8.960448	0.041633	1.916946E-6	1.152461E-8
0.003400	9.495588	0.044120	2.002509E-6	1.203850E-8
0.003450	10.030185	0.046598	2.085502E-6	1.253573E-8
0.003500	10.570449	0.049086	2.164568E-6	1.301003E-8
0.003550	11.103851	0.051544	2.241101E-6	1.346602E-8
0.003600	11.638491	0.053988	2.314732E-6	1.391024E-8
0.003650	12.169874	0.056461	2.385773E-6	1.435053E-8
0.003700	12.701865	0.059034	2.455611E-6	1.479090E-8
0.003750	13.244214	0.061706	2.523704E-6	1.518631E-8
0.003800	13.777703	0.063994	2.586755E-6	1.556113E-8
0.003850	14.305502	0.066494	2.647863E-6	1.599232E-8
0.003900	14.845006	0.069202	2.710685E-6	1.633566E-8
0.003950	15.381427	0.071652	2.767453E-6	1.672719E-8
0.004000	15.916328	0.074077	2.827199E-6	1.707474E-8
0.004050	16.440087	0.076779	2.882224E-6	1.741449E-8
0.004100	16.971730	0.079337	2.933160E-6	1.774614E-8
0.004150	17.507261	0.081968	2.984464E-6	1.808334E-8
0.004200	18.037123	0.084508	3.037429E-6	1.844140E-8
0.004250	18.568157	0.087051	3.090982E-6	1.877631E-8
0.004300	19.127228	0.089900	3.129966E-6	1.912593E-8
0.004350	19.656613	0.092336	3.179116E-6	1.938584E-8
0.004400	20.164085	0.094681	3.226558E-6	1.969453E-8
0.004450	20.728911	0.097497	3.268512E-6	1.997819E-8
0.004500	21.256536	0.100178	3.306165E-6	2.030736E-8
0.004550	21.758622	0.102503	3.361144E-6	2.053484E-8
0.004600	22.333937	0.104989	3.396161E-6	2.081267E-8
0.004650	22.886319	0.107960	3.431526E-6	2.093319E-8
0.004700	23.409275	0.110284	3.467116E-6	2.124009E-8
0.004750	23.923545	0.112564	3.506099E-6	2.145994E-8
0.004800	24.452516	0.114955	3.543128E-6	2.169631E-8
0.004850	24.998861	0.117579	3.579215E-6	2.192544E-8
0.004900	25.553067	0.120242	3.616135E-6	2.211569E-8
0.004950	26.087989	0.122673	3.657612E-6	2.231715E-8
0.005000	26.596330	0.124827	3.695626E-6	2.253096E-8
0.005050	26.300963	0.123491	3.659241E-6	2.225366E-8
0.005100	25.763349	0.120865	3.618121E-6	2.208931E-8
0.005150	25.234877	0.118351	3.582671E-6	2.182987E-8
0.005200	24.697197	0.115872	3.546828E-6	2.160717E-8
0.005250	24.160711	0.113438	3.512622E-6	2.138136E-8
0.005300	23.638472	0.111101	3.477539E-6	2.116752E-8
0.005350	23.138101	0.108432	3.432588E-6	2.096015E-8
0.005400	22.619336	0.106249	3.386436E-6	2.065705E-8
0.005450	22.037984	0.103408	3.352518E-6	2.042872E-8
0.005500	21.525148	0.101067	3.309583E-6	2.019508E-8
0.005550	20.996806	0.098656	3.260880E-6	1.994399E-8
0.005600	20.445662	0.096053	3.222029E-6	1.966476E-8
0.005650	19.916907	0.093535	3.178385E-6	1.935264E-8
0.005700	19.409153	0.090939	3.126075E-6	1.903931E-8
0.005750	18.850299	0.088579	3.082619E-6	1.878847E-8
0.005800	18.298112	0.085968	3.039526E-6	1.849252E-8
0.005850	17.766296	0.083356	2.989873E-6	1.813874E-8
0.005900	17.235652	0.080861	2.938109E-6	1.782144E-8
0.005950	16.704704	0.078258	2.884383E-6	1.752546E-8
0.006000	16.167393	0.075625	2.827013E-6	1.714845E-8
0.006050	15.659225	0.073169	2.765040E-6	1.677017E-8
0.006100	15.129993	0.070684	2.716510E-6	1.643088E-8
0.006150	14.570205	0.067954	2.651550E-6	1.602776E-8
0.006200	14.056869	0.065596	2.596466E-6	1.567762E-8
0.006250	13.517104	0.062971	2.527839E-6	1.525248E-8
0.006300	12.968674	0.060384	2.463799E-6	1.487605E-8
0.006350	12.441201	0.057962	2.399238E-6	1.447295E-8
0.006400	11.912055	0.055456	2.331074E-6	1.404775E-8
0.006450	11.373571	0.052907	2.258177E-6	1.360199E-8
0.006500	10.837150	0.050380	2.183273E-6	1.313665E-8
0.006550	10.305746	0.047871	2.107735E-6	1.266945E-8
0.006600	9.769347	0.045406	2.028962E-6	1.220199E-8
0.006650	9.232731	0.042911	1.946959E-6	1.170701E-8
0.006700	8.698720	0.040447	1.862375E-6	1.119638E-8
0.006750	8.163494	0.037983	1.774370E-6	1.067141E-8
0.006800	7.628224	0.035494	1.683431E-6	1.012921E-8
0.006850	7.090717	0.033015	1.588622E-6	9.563577E-9
0.006900	6.554079	0.030586	1.490761E-6	8.977170E-9
0.006950	6.016094	0.028063	1.388085E-6	8.359002E-9
0.007000	5.484907	0.025609	1.283637E-6	7.737118E-9
0.007050	4.949593	0.023144	1.174092E-6	7.093076E-9
0.007100	4.412651	0.020716	1.061255E-6	6.413514E-9
0.007150	3.879140	0.018264	9.436140E-7	5.709804E-9
0.007200	3.339569	0.015860	8.228854E-7	5.012371E-9
0.007250	2.803930	0.013363	6.974312E-7	4.271264E-9
0.007300	2.270028	0.010990	5.696822E-7	3.512701E-9
0.007350	1.737168	0.008675	4.383070E-7	2.730090E-9
0.007400	1.201094	0.006380	3.036428E-7	1.994950E-9
0.007450	0.665042	0.004365	1.685800E-7	1.323273E-9
0.007500	0.131661	0.003295	3.486398E-8	7.752942E-10
0.007550	-0.362522	0.002924	-9.060536E-8	6.677272E-10
0.007600	-0.898053	0.005240	-2.188185E-7	1.491542E-9
0.007650	-1.433475	0.007373	-3.468038E-7	2.244134E-9
0.007700	-1.970136	0.009634	-4.754942E-7	2.951148E-9
0.007750	-2.505667	0.012053	-6.041978E-7	3.703406E-9
0.007800	-3.038875	0.014415	-7.310794E-7	4.452872E-9
0.007850	-3.580921	0.016858	-8.587297E-7	5.228156E-9
0.007900	-4.114215	0.019317	-9.800449E-7	5.932632E-9
0.007950	-4.647249	0.021772	-1.097782E-6	6.625224E-9
0.008000	-5.181391	0.024243	-1.212427E-6	7.311925E-9
0.008050	-5.719354	0.026675	-1.323236E-6	7.976663E-9
0.008100	-6.253800	0.029175	-1.429284E-6	8.610638E-9
0.008150	-6.798626	0.031630	-1.534108E-6	9.222069E-9
0.008200	-7.335635	0.034177	-1.632928E-6	9.828970E-9
0.008250	-7.867865	0.036589	-1.727642E-6	1.039226E-8
0.008300	-8.403071	0.039084	-1.819389E-6	1.094676E-8
0.008350	-8.937148	0.041548	-1.907551E-6	1.146518E-8
0.008400	-9.473027	0.044024	-1.993319E-6	1.198265E-8
0.008450	-10.009340	0.046535	-2.075144E-6	1.247854E-8
0.008500	-10.550562	0.048983	-2.155364E-6	1.295249E-8
0.008550	-11.084400	0.051481	-2.231771E-6	1.341145E-8
0.008600	-11.615871	0.053947	-2.305678E-6	1.385450E-8
0.008650	-12.150447	0.056407	-2.376881E-6	1.428441E-8
0.008700	-12.685154	0.058878	-2.445777E-6	1.469651E-8
0.008750	-13.218493	0.061357	-2.513080E-6	1.510271E-8
0.008800	-13.758607	0.063864	-2.578019E-6	1.548956E-8
0.008850	-14.292662	0.066332	-2.641012E-6	1.586904E-8
0.008900	-14.825675	0.068798	-2.701515E-6	1.623179E-8
0.008950	-15.362706	0.071283	-2.760637E-6	1.658485E-8
0.009000	-15.896457	0.073757	-2.817680E-6	1.692666E-8
0.009050	-16.431338	0.076238	-2.873188E-6	1.726181E-8
0.009100	-16.972278	0.078754	-2.928191E-6	1.759321E-8
0.009150	-17.507420	0.081212	-2.980169E-6	1.790181E-8
0.009200	-18.037979	0.083675	-3.030654E-6	1.820509E-8
0.009250	-18.573099	0.086160	-3.080631E-6	1.850523E-8
0.009300	-19.108371	0.088631	-3.128718E-6	1.879586E-8
0.009350	-19.643187	0.091115	-3.175658E-6	1.907671E-8
0.009400	-20.184474	0.093633	-3.222123E-6	1.935509E-8
0.009450	-20.718465	0.096087	-3.266380E-6	1.962082E-8
0.009500	-21.250892	0.098557	-3.309466E-6	1.987973E-8
0.009550	-21.783971	0.101029	-3.351763E-6	2.013436E-8
0.009600	-22.318505	0.103510	-3.392957E-6	2.038026E-8
0.009650	-22.853039	0.105985	-3.433181E-6	2.062155E-8
0.009700	-23.395239	0.108530	-3.473635E-6	2.086791E-8
0.009750	-23.937613	0.111004	-3.511953E-6	2.109749E-8
0.009800	-24.470562	0.113469	-3.549238E-6	2.132017E-8
0.009850	-25.000861	0.115929	-3.586000E-6	2.154010E-8
0.009900	-25.535417	0.118409	-3.622232E-6	2.175848E-8
0.009950	-26.067997	0.120879	-3.657524E-6	2.197086E-8

