LabVIEW Measurement	
Writer_Version	2
Reader_Version	2
Separator	Tab
Decimal_Separator	.
Multi_Headings	Yes
X_Columns	One
Time_Pref	Relative
Operator	e014
Description	Hysteresis Loop Data
Date	2015/07/24
Time	13:42:55.8909735679626464844
***End_of_Header***	
	
Channels	2		
Samples	2500	2500	
Date	2015/07/24	2015/07/24	
Time	13:42:55.8909735679626464844	13:42:55.8909735679626464844	
X_Dimension	Time	Time	
X0	-1.2500000000000000E-3	-1.2500000000000000E-3	
Delta_X	1.000000E-6	1.000000E-6	
***End_of_Header***			
X_Value	Untitled	Untitled 1	Comment
-0.001250	-26.800000	-0.256000
-0.001249	-26.400000	-0.256000
-0.001248	-26.400000	-0.256000
-0.001247	-26.400000	-0.256000
-0.001246	-26.000000	-0.256000
-0.001245	-26.000000	-0.256000
-0.001244	-26.000000	-0.248000
-0.001243	-26.000000	-0.256000
-0.001242	-26.000000	-0.256000
-0.001241	-25.600000	-0.248000
-0.001240	-25.600000	-0.256000
-0.001239	-25.600000	-0.248000
-0.001238	-25.200000	-0.248000
-0.001237	-25.200000	-0.248000
-0.001236	-25.200000	-0.248000
-0.001235	-24.800000	-0.240000
-0.001234	-25.200000	-0.248000
-0.001233	-24.800000	-0.248000
-0.001232	-24.400000	-0.240000
-0.001231	-24.400000	-0.240000
-0.001230	-24.400000	-0.240000
-0.001229	-24.400000	-0.240000
-0.001228	-24.000000	-0.232000
-0.001227	-24.000000	-0.232000
-0.001226	-24.000000	-0.240000
-0.001225	-23.600000	-0.240000
-0.001224	-23.600000	-0.232000
-0.001223	-23.600000	-0.232000
-0.001222	-23.200000	-0.232000
-0.001221	-23.200000	-0.232000
-0.001220	-23.200000	-0.232000
-0.001219	-23.200000	-0.224000
-0.001218	-22.800000	-0.232000
-0.001217	-22.800000	-0.232000
-0.001216	-22.800000	-0.224000
-0.001215	-22.800000	-0.224000
-0.001214	-22.400000	-0.224000
-0.001213	-22.400000	-0.224000
-0.001212	-22.400000	-0.224000
-0.001211	-22.000000	-0.224000
-0.001210	-22.400000	-0.224000
-0.001209	-22.000000	-0.216000
-0.001208	-21.600000	-0.216000
-0.001207	-21.600000	-0.216000
-0.001206	-21.600000	-0.216000
-0.001205	-21.200000	-0.208000
-0.001204	-21.200000	-0.216000
-0.001203	-21.200000	-0.216000
-0.001202	-20.800000	-0.216000
-0.001201	-20.800000	-0.216000
-0.001200	-20.800000	-0.216000
-0.001199	-20.800000	-0.208000
-0.001198	-20.400000	-0.208000
-0.001197	-20.400000	-0.208000
-0.001196	-20.000000	-0.208000
-0.001195	-20.000000	-0.208000
-0.001194	-20.400000	-0.200000
-0.001193	-20.000000	-0.208000
-0.001192	-20.000000	-0.200000
-0.001191	-19.600000	-0.200000
-0.001190	-19.600000	-0.200000
-0.001189	-19.600000	-0.200000
-0.001188	-19.600000	-0.200000
-0.001187	-19.200000	-0.200000
-0.001186	-19.200000	-0.200000
-0.001185	-18.800000	-0.192000
-0.001184	-18.800000	-0.192000
-0.001183	-18.800000	-0.192000
-0.001182	-18.800000	-0.200000
-0.001181	-18.400000	-0.192000
-0.001180	-18.400000	-0.184000
-0.001179	-18.400000	-0.192000
-0.001178	-18.400000	-0.184000
-0.001177	-18.000000	-0.192000
-0.001176	-18.000000	-0.184000
-0.001175	-17.600000	-0.184000
-0.001174	-17.600000	-0.184000
-0.001173	-17.600000	-0.184000
-0.001172	-17.600000	-0.176000
-0.001171	-17.600000	-0.184000
-0.001170	-17.200000	-0.176000
-0.001169	-17.200000	-0.176000
-0.001168	-17.200000	-0.176000
-0.001167	-16.800000	-0.176000
-0.001166	-16.800000	-0.168000
-0.001165	-16.800000	-0.176000
-0.001164	-16.400000	-0.176000
-0.001163	-16.800000	-0.168000
-0.001162	-16.400000	-0.168000
-0.001161	-16.400000	-0.168000
-0.001160	-16.400000	-0.168000
-0.001159	-16.000000	-0.168000
-0.001158	-16.000000	-0.168000
-0.001157	-16.000000	-0.168000
-0.001156	-15.600000	-0.160000
-0.001155	-15.200000	-0.160000
-0.001154	-15.200000	-0.160000
-0.001153	-15.200000	-0.160000
-0.001152	-15.200000	-0.160000
-0.001151	-15.200000	-0.152000
-0.001150	-15.200000	-0.160000
-0.001149	-14.800000	-0.144000
-0.001148	-14.400000	-0.152000
-0.001147	-14.400000	-0.152000
-0.001146	-14.400000	-0.152000
-0.001145	-14.400000	-0.152000
-0.001144	-14.400000	-0.144000
-0.001143	-14.400000	-0.152000
-0.001142	-14.000000	-0.152000
-0.001141	-14.000000	-0.152000
-0.001140	-13.600000	-0.144000
-0.001139	-13.600000	-0.144000
-0.001138	-13.600000	-0.144000
-0.001137	-13.600000	-0.144000
-0.001136	-13.200000	-0.144000
-0.001135	-13.200000	-0.136000
-0.001134	-13.200000	-0.136000
-0.001133	-12.800000	-0.144000
-0.001132	-12.800000	-0.136000
-0.001131	-12.800000	-0.136000
-0.001130	-12.800000	-0.136000
-0.001129	-12.400000	-0.136000
-0.001128	-12.400000	-0.136000
-0.001127	-12.400000	-0.128000
-0.001126	-12.000000	-0.128000
-0.001125	-12.000000	-0.128000
-0.001124	-12.000000	-0.128000
-0.001123	-12.000000	-0.128000
-0.001122	-11.600000	-0.128000
-0.001121	-11.600000	-0.120000
-0.001120	-11.600000	-0.128000
-0.001119	-11.600000	-0.120000
-0.001118	-11.200000	-0.128000
-0.001117	-11.200000	-0.120000
-0.001116	-11.200000	-0.120000
-0.001115	-11.200000	-0.120000
-0.001114	-10.800000	-0.120000
-0.001113	-10.800000	-0.120000
-0.001112	-10.400000	-0.112000
-0.001111	-10.400000	-0.112000
-0.001110	-10.400000	-0.120000
-0.001109	-10.400000	-0.112000
-0.001108	-10.000000	-0.112000
-0.001107	-10.000000	-0.112000
-0.001106	-10.000000	-0.112000
-0.001105	-10.000000	-0.112000
-0.001104	-9.600000	-0.104000
-0.001103	-9.600000	-0.104000
-0.001102	-9.600000	-0.088000
-0.001101	-9.200000	-0.104000
-0.001100	-9.600000	-0.104000
-0.001099	-9.200000	-0.104000
-0.001098	-8.800000	-0.096000
-0.001097	-8.800000	-0.096000
-0.001096	-8.400000	-0.096000
-0.001095	-8.800000	-0.096000
-0.001094	-8.400000	-0.096000
-0.001093	-8.000000	-0.096000
-0.001092	-8.400000	-0.096000
-0.001091	-8.000000	-0.088000
-0.001090	-8.000000	-0.088000
-0.001089	-7.600000	-0.088000
-0.001088	-7.600000	-0.088000
-0.001087	-7.600000	-0.088000
-0.001086	-7.600000	-0.080000
-0.001085	-7.200000	-0.088000
-0.001084	-7.200000	-0.088000
-0.001083	-7.200000	-0.080000
-0.001082	-6.800000	-0.080000
-0.001081	-6.800000	-0.080000
-0.001080	-6.400000	-0.080000
-0.001079	-6.400000	-0.080000
-0.001078	-6.400000	-0.080000
-0.001077	-6.400000	-0.072000
-0.001076	-6.400000	-0.072000
-0.001075	-6.000000	-0.072000
-0.001074	-6.000000	-0.072000
-0.001073	-6.000000	-0.072000
-0.001072	-5.600000	-0.072000
-0.001071	-5.600000	-0.072000
-0.001070	-6.000000	-0.064000
-0.001069	-5.600000	-0.064000
-0.001068	-5.600000	-0.064000
-0.001067	-5.200000	-0.064000
-0.001066	-5.200000	-0.064000
-0.001065	-4.800000	-0.064000
-0.001064	-5.200000	-0.056000
-0.001063	-4.800000	-0.064000
-0.001062	-4.800000	-0.056000
-0.001061	-4.800000	-0.064000
-0.001060	-4.400000	-0.056000
-0.001059	-4.400000	-0.056000
-0.001058	-4.400000	-0.056000
-0.001057	-4.000000	-0.048000
-0.001056	-4.000000	-0.056000
-0.001055	-4.000000	-0.064000
-0.001054	-4.000000	-0.048000
-0.001053	-3.600000	-0.048000
-0.001052	-3.600000	-0.048000
-0.001051	-3.600000	-0.040000
-0.001050	-3.200000	-0.048000
-0.001049	-3.200000	-0.040000
-0.001048	-2.800000	-0.040000
-0.001047	-2.800000	-0.040000
-0.001046	-2.800000	-0.040000
-0.001045	-2.400000	-0.040000
-0.001044	-2.400000	-0.040000
-0.001043	-2.400000	-0.040000
-0.001042	-2.400000	-0.032000
-0.001041	-2.400000	-0.032000
-0.001040	-2.000000	-0.032000
-0.001039	-2.000000	-0.032000
-0.001038	-1.600000	-0.032000
-0.001037	-1.600000	-0.032000
-0.001036	-1.600000	-0.032000
-0.001035	-1.200000	-0.024000
-0.001034	-1.200000	-0.024000
-0.001033	-1.200000	-0.016000
-0.001032	-1.200000	-0.024000
-0.001031	-0.800000	-0.016000
-0.001030	-0.800000	-0.016000
-0.001029	-0.800000	-0.016000
-0.001028	-0.800000	-0.016000
-0.001027	-0.400000	-0.016000
-0.001026	-0.400000	-0.016000
-0.001025	-0.400000	-0.016000
-0.001024	0.000000	-0.016000
-0.001023	0.000000	-0.008000
-0.001022	0.000000	-0.008000
-0.001021	0.400000	-0.008000
-0.001020	0.400000	-0.016000
-0.001019	0.400000	-0.008000
-0.001018	0.800000	-0.008000
-0.001017	0.400000	-0.008000
-0.001016	0.800000	0.000000
-0.001015	0.800000	0.000000
-0.001014	1.200000	-0.008000
-0.001013	1.200000	0.000000
-0.001012	1.200000	0.000000
-0.001011	1.200000	0.000000
-0.001010	1.200000	0.000000
-0.001009	1.600000	0.008000
-0.001008	1.600000	0.008000
-0.001007	1.600000	0.008000
-0.001006	2.000000	0.008000
-0.001005	2.000000	0.008000
-0.001004	2.000000	0.008000
-0.001003	2.000000	0.008000
-0.001002	2.400000	0.008000
-0.001001	2.400000	0.008000
-0.001000	2.800000	0.016000
-0.000999	2.400000	0.016000
-0.000998	2.800000	0.016000
-0.000997	2.800000	0.016000
-0.000996	3.200000	0.016000
-0.000995	3.200000	0.016000
-0.000994	3.600000	0.024000
-0.000993	3.600000	0.024000
-0.000992	3.600000	0.016000
-0.000991	3.600000	0.032000
-0.000990	3.600000	0.024000
-0.000989	4.000000	0.032000
-0.000988	4.400000	0.024000
-0.000987	4.400000	0.024000
-0.000986	4.400000	0.032000
-0.000985	4.400000	0.032000
-0.000984	4.400000	0.032000
-0.000983	4.800000	0.032000
-0.000982	4.800000	0.032000
-0.000981	4.800000	0.032000
-0.000980	4.800000	0.040000
-0.000979	5.200000	0.032000
-0.000978	5.200000	0.032000
-0.000977	5.200000	0.048000
-0.000976	5.200000	0.040000
-0.000975	5.600000	0.040000
-0.000974	5.600000	0.040000
-0.000973	6.000000	0.040000
-0.000972	6.000000	0.040000
-0.000971	6.000000	0.040000
-0.000970	6.400000	0.048000
-0.000969	6.400000	0.048000
-0.000968	6.400000	0.048000
-0.000967	6.400000	0.048000
-0.000966	6.400000	0.048000
-0.000965	6.400000	0.056000
-0.000964	6.800000	0.072000
-0.000963	6.800000	0.056000
-0.000962	7.200000	0.048000
-0.000961	7.200000	0.064000
-0.000960	7.200000	0.064000
-0.000959	7.600000	0.064000
-0.000958	7.600000	0.056000
-0.000957	7.600000	0.064000
-0.000956	7.600000	0.064000
-0.000955	8.000000	0.064000
-0.000954	8.000000	0.064000
-0.000953	8.400000	0.072000
-0.000952	8.000000	0.072000
-0.000951	8.400000	0.064000
-0.000950	8.800000	0.072000
-0.000949	8.800000	0.064000
-0.000948	8.800000	0.064000
-0.000947	8.800000	0.072000
-0.000946	9.200000	0.080000
-0.000945	9.200000	0.072000
-0.000944	9.200000	0.080000
-0.000943	9.200000	0.080000
-0.000942	9.600000	0.080000
-0.000941	9.600000	0.080000
-0.000940	9.600000	0.080000
-0.000939	10.000000	0.088000
-0.000938	10.000000	0.088000
-0.000937	10.000000	0.088000
-0.000936	10.000000	0.088000
-0.000935	10.400000	0.088000
-0.000934	10.400000	0.088000
-0.000933	10.400000	0.088000
-0.000932	10.400000	0.088000
-0.000931	10.800000	0.088000
-0.000930	10.800000	0.096000
-0.000929	10.800000	0.096000
-0.000928	11.200000	0.096000
-0.000927	11.200000	0.096000
-0.000926	11.200000	0.096000
-0.000925	11.200000	0.096000
-0.000924	11.600000	0.104000
-0.000923	11.600000	0.104000
-0.000922	11.600000	0.104000
-0.000921	12.000000	0.096000
-0.000920	12.000000	0.104000
-0.000919	12.000000	0.104000
-0.000918	12.400000	0.104000
-0.000917	12.400000	0.104000
-0.000916	12.400000	0.112000
-0.000915	12.400000	0.112000
-0.000914	12.400000	0.112000
-0.000913	12.800000	0.112000
-0.000912	12.800000	0.112000
-0.000911	13.200000	0.120000
-0.000910	13.200000	0.120000
-0.000909	13.200000	0.112000
-0.000908	13.600000	0.120000
-0.000907	13.600000	0.120000
-0.000906	13.600000	0.120000
-0.000905	13.600000	0.120000
-0.000904	13.600000	0.120000
-0.000903	14.000000	0.120000
-0.000902	14.000000	0.128000
-0.000901	14.000000	0.120000
-0.000900	14.000000	0.120000
-0.000899	14.400000	0.128000
-0.000898	14.400000	0.128000
-0.000897	14.800000	0.128000
-0.000896	14.800000	0.128000
-0.000895	15.200000	0.136000
-0.000894	15.200000	0.136000
-0.000893	15.200000	0.136000
-0.000892	15.200000	0.144000
-0.000891	15.600000	0.144000
-0.000890	15.600000	0.144000
-0.000889	15.600000	0.144000
-0.000888	15.600000	0.136000
-0.000887	15.600000	0.144000
-0.000886	16.000000	0.144000
-0.000885	16.000000	0.144000
-0.000884	16.400000	0.136000
-0.000883	16.400000	0.152000
-0.000882	16.400000	0.152000
-0.000881	16.400000	0.152000
-0.000880	16.800000	0.152000
-0.000879	16.800000	0.152000
-0.000878	16.800000	0.152000
-0.000877	16.800000	0.160000
-0.000876	17.200000	0.160000
-0.000875	17.200000	0.152000
-0.000874	17.600000	0.160000
-0.000873	17.600000	0.160000
-0.000872	17.600000	0.160000
-0.000871	17.600000	0.160000
-0.000870	17.600000	0.160000
-0.000869	18.000000	0.168000
-0.000868	18.000000	0.168000
-0.000867	18.000000	0.168000
-0.000866	18.400000	0.168000
-0.000865	18.000000	0.168000
-0.000864	18.400000	0.168000
-0.000863	18.800000	0.168000
-0.000862	18.800000	0.176000
-0.000861	18.400000	0.168000
-0.000860	18.800000	0.176000
-0.000859	19.200000	0.176000
-0.000858	19.200000	0.176000
-0.000857	19.200000	0.176000
-0.000856	19.200000	0.184000
-0.000855	19.600000	0.184000
-0.000854	19.600000	0.184000
-0.000853	19.600000	0.184000
-0.000852	20.000000	0.184000
-0.000851	20.000000	0.184000
-0.000850	20.000000	0.184000
-0.000849	20.000000	0.192000
-0.000848	20.400000	0.192000
-0.000847	20.400000	0.192000
-0.000846	20.800000	0.192000
-0.000845	20.800000	0.192000
-0.000844	20.800000	0.192000
-0.000843	20.800000	0.192000
-0.000842	21.200000	0.200000
-0.000841	21.200000	0.200000
-0.000840	21.200000	0.200000
-0.000839	21.600000	0.192000
-0.000838	21.600000	0.200000
-0.000837	21.600000	0.200000
-0.000836	21.600000	0.208000
-0.000835	21.600000	0.208000
-0.000834	22.000000	0.200000
-0.000833	22.000000	0.200000
-0.000832	22.000000	0.208000
-0.000831	22.400000	0.208000
-0.000830	22.400000	0.208000
-0.000829	22.400000	0.208000
-0.000828	22.800000	0.208000
-0.000827	22.800000	0.216000
-0.000826	22.800000	0.208000
-0.000825	23.200000	0.216000
-0.000824	23.200000	0.216000
-0.000823	23.200000	0.216000
-0.000822	23.200000	0.216000
-0.000821	23.600000	0.224000
-0.000820	23.600000	0.216000
-0.000819	23.600000	0.224000
-0.000818	23.600000	0.224000
-0.000817	24.000000	0.224000
-0.000816	24.400000	0.224000
-0.000815	24.000000	0.224000
-0.000814	24.400000	0.232000
-0.000813	24.400000	0.224000
-0.000812	24.400000	0.232000
-0.000811	24.800000	0.232000
-0.000810	24.800000	0.232000
-0.000809	24.800000	0.232000
-0.000808	24.800000	0.232000
-0.000807	25.200000	0.240000
-0.000806	25.200000	0.248000
-0.000805	25.200000	0.240000
-0.000804	25.600000	0.248000
-0.000803	25.600000	0.240000
-0.000802	25.600000	0.240000
-0.000801	25.600000	0.248000
-0.000800	26.000000	0.248000
-0.000799	26.000000	0.248000
-0.000798	26.000000	0.248000
-0.000797	26.000000	0.256000
-0.000796	26.400000	0.248000
-0.000795	26.400000	0.248000
-0.000794	26.400000	0.256000
-0.000793	26.400000	0.248000
-0.000792	26.800000	0.256000
-0.000791	26.800000	0.256000
-0.000790	26.800000	0.256000
-0.000789	27.200000	0.256000
-0.000788	27.200000	0.264000
-0.000787	27.200000	0.256000
-0.000786	27.600000	0.264000
-0.000785	27.600000	0.264000
-0.000784	28.000000	0.264000
-0.000783	27.600000	0.264000
-0.000782	28.000000	0.264000
-0.000781	28.000000	0.272000
-0.000780	28.000000	0.272000
-0.000779	28.400000	0.272000
-0.000778	28.400000	0.272000
-0.000777	28.800000	0.272000
-0.000776	28.800000	0.272000
-0.000775	28.800000	0.272000
-0.000774	28.800000	0.272000
-0.000773	28.800000	0.280000
-0.000772	28.800000	0.280000
-0.000771	29.200000	0.280000
-0.000770	28.800000	0.272000
-0.000769	28.800000	0.280000
-0.000768	28.800000	0.272000
-0.000767	28.800000	0.280000
-0.000766	28.800000	0.272000
-0.000765	28.400000	0.272000
-0.000764	28.400000	0.272000
-0.000763	28.400000	0.272000
-0.000762	28.000000	0.272000
-0.000761	28.000000	0.272000
-0.000760	28.000000	0.272000
-0.000759	27.600000	0.272000
-0.000758	27.600000	0.272000
-0.000757	27.600000	0.264000
-0.000756	27.600000	0.272000
-0.000755	27.200000	0.264000
-0.000754	27.200000	0.264000
-0.000753	27.200000	0.264000
-0.000752	26.800000	0.264000
-0.000751	26.800000	0.256000
-0.000750	26.800000	0.256000
-0.000749	26.400000	0.256000
-0.000748	26.400000	0.256000
-0.000747	26.400000	0.264000
-0.000746	26.400000	0.256000
-0.000745	26.000000	0.256000
-0.000744	26.000000	0.256000
-0.000743	26.000000	0.256000
-0.000742	25.600000	0.256000
-0.000741	25.600000	0.248000
-0.000740	25.600000	0.256000
-0.000739	25.600000	0.256000
-0.000738	25.200000	0.248000
-0.000737	25.200000	0.248000
-0.000736	25.200000	0.248000
-0.000735	25.200000	0.240000
-0.000734	24.800000	0.248000
-0.000733	24.400000	0.240000
-0.000732	24.800000	0.240000
-0.000731	24.400000	0.240000
-0.000730	24.400000	0.240000
-0.000729	24.400000	0.240000
-0.000728	24.400000	0.240000
-0.000727	24.000000	0.240000
-0.000726	24.000000	0.240000
-0.000725	24.000000	0.240000
-0.000724	23.600000	0.232000
-0.000723	23.600000	0.232000
-0.000722	23.200000	0.232000
-0.000721	23.200000	0.232000
-0.000720	23.200000	0.232000
-0.000719	22.800000	0.232000
-0.000718	23.200000	0.232000
-0.000717	22.800000	0.224000
-0.000716	22.800000	0.224000
-0.000715	22.400000	0.224000
-0.000714	22.400000	0.232000
-0.000713	22.400000	0.224000
-0.000712	22.000000	0.216000
-0.000711	22.000000	0.216000
-0.000710	22.000000	0.216000
-0.000709	22.000000	0.216000
-0.000708	22.000000	0.216000
-0.000707	21.600000	0.216000
-0.000706	21.600000	0.216000
-0.000705	21.600000	0.216000
-0.000704	21.200000	0.216000
-0.000703	21.600000	0.208000
-0.000702	21.200000	0.216000
-0.000701	20.800000	0.208000
-0.000700	20.800000	0.208000
-0.000699	20.800000	0.208000
-0.000698	20.400000	0.208000
-0.000697	20.400000	0.208000
-0.000696	20.400000	0.200000
-0.000695	20.000000	0.200000
-0.000694	20.000000	0.200000
-0.000693	20.000000	0.200000
-0.000692	20.000000	0.200000
-0.000691	19.600000	0.200000
-0.000690	19.600000	0.200000
-0.000689	19.600000	0.200000
-0.000688	19.200000	0.192000
-0.000687	19.200000	0.192000
-0.000686	19.200000	0.200000
-0.000685	19.200000	0.200000
-0.000684	18.800000	0.192000
-0.000683	18.800000	0.192000
-0.000682	18.800000	0.192000
-0.000681	18.400000	0.192000
-0.000680	18.400000	0.192000
-0.000679	18.400000	0.192000
-0.000678	18.400000	0.184000
-0.000677	18.000000	0.184000
-0.000676	18.000000	0.184000
-0.000675	17.600000	0.184000
-0.000674	18.000000	0.184000
-0.000673	17.600000	0.184000
-0.000672	17.600000	0.176000
-0.000671	17.600000	0.176000
-0.000670	17.200000	0.176000
-0.000669	17.200000	0.176000
-0.000668	16.800000	0.176000
-0.000667	17.200000	0.176000
-0.000666	16.800000	0.176000
-0.000665	16.800000	0.176000
-0.000664	16.800000	0.176000
-0.000663	16.400000	0.168000
-0.000662	16.400000	0.168000
-0.000661	16.000000	0.168000
-0.000660	16.000000	0.168000
-0.000659	16.000000	0.168000
-0.000658	16.000000	0.168000
-0.000657	16.000000	0.168000
-0.000656	15.600000	0.168000
-0.000655	15.600000	0.160000
-0.000654	15.600000	0.160000
-0.000653	15.200000	0.160000
-0.000652	15.600000	0.160000
-0.000651	15.200000	0.160000
-0.000650	14.800000	0.160000
-0.000649	14.800000	0.152000
-0.000648	14.800000	0.152000
-0.000647	14.800000	0.152000
-0.000646	14.400000	0.152000
-0.000645	14.400000	0.152000
-0.000644	14.400000	0.152000
-0.000643	14.000000	0.152000
-0.000642	14.000000	0.152000
-0.000641	13.600000	0.144000
-0.000640	13.600000	0.144000
-0.000639	13.600000	0.144000
-0.000638	13.600000	0.144000
-0.000637	13.600000	0.144000
-0.000636	13.200000	0.144000
-0.000635	13.200000	0.136000
-0.000634	13.200000	0.144000
-0.000633	13.200000	0.136000
-0.000632	12.800000	0.144000
-0.000631	12.800000	0.128000
-0.000630	12.800000	0.128000
-0.000629	12.400000	0.128000
-0.000628	12.400000	0.128000
-0.000627	12.400000	0.128000
-0.000626	12.000000	0.128000
-0.000625	12.000000	0.128000
-0.000624	11.600000	0.128000
-0.000623	12.000000	0.120000
-0.000622	12.000000	0.120000
-0.000621	11.600000	0.120000
-0.000620	11.600000	0.128000
-0.000619	11.200000	0.120000
-0.000618	11.200000	0.120000
-0.000617	11.200000	0.120000
-0.000616	10.800000	0.120000
-0.000615	10.800000	0.120000
-0.000614	10.800000	0.120000
-0.000613	10.800000	0.112000
-0.000612	10.400000	0.112000
-0.000611	10.400000	0.112000
-0.000610	10.400000	0.112000
-0.000609	10.000000	0.112000
-0.000608	10.000000	0.112000
-0.000607	10.000000	0.112000
-0.000606	10.000000	0.104000
-0.000605	9.600000	0.104000
-0.000604	9.600000	0.112000
-0.000603	9.600000	0.104000
-0.000602	9.200000	0.104000
-0.000601	9.200000	0.104000
-0.000600	9.200000	0.104000
-0.000599	9.200000	0.096000
-0.000598	9.200000	0.096000
-0.000597	8.800000	0.096000
-0.000596	8.800000	0.096000
-0.000595	8.400000	0.096000
-0.000594	8.400000	0.096000
-0.000593	8.400000	0.096000
-0.000592	8.000000	0.096000
-0.000591	8.000000	0.088000
-0.000590	8.000000	0.088000
-0.000589	8.000000	0.088000
-0.000588	7.600000	0.080000
-0.000587	7.600000	0.088000
-0.000586	7.200000	0.088000
-0.000585	7.200000	0.080000
-0.000584	7.200000	0.080000
-0.000583	7.200000	0.080000
-0.000582	7.200000	0.080000
-0.000581	6.800000	0.080000
-0.000580	6.800000	0.080000
-0.000579	6.800000	0.080000
-0.000578	6.400000	0.080000
-0.000577	6.400000	0.080000
-0.000576	6.400000	0.072000
-0.000575	6.000000	0.072000
-0.000574	6.000000	0.072000
-0.000573	6.000000	0.072000
-0.000572	6.000000	0.072000
-0.000571	5.600000	0.072000
-0.000570	5.600000	0.064000
-0.000569	5.600000	0.064000
-0.000568	5.200000	0.064000
-0.000567	5.600000	0.064000
-0.000566	5.200000	0.064000
-0.000565	5.200000	0.064000
-0.000564	5.200000	0.064000
-0.000563	4.800000	0.056000
-0.000562	4.800000	0.064000
-0.000561	4.400000	0.056000
-0.000560	4.400000	0.056000
-0.000559	4.400000	0.056000
-0.000558	4.400000	0.048000
-0.000557	4.400000	0.048000
-0.000556	4.000000	0.048000
-0.000555	4.000000	0.048000
-0.000554	3.600000	0.048000
-0.000553	3.600000	0.048000
-0.000552	3.600000	0.040000
-0.000551	3.200000	0.040000
-0.000550	3.200000	0.048000
-0.000549	3.200000	0.040000
-0.000548	3.200000	0.040000
-0.000547	2.800000	0.040000
-0.000546	3.200000	0.040000
-0.000545	2.400000	0.040000
-0.000544	2.400000	0.040000
-0.000543	2.400000	0.040000
-0.000542	2.000000	0.032000
-0.000541	2.400000	0.032000
-0.000540	2.000000	0.040000
-0.000539	2.000000	0.032000
-0.000538	1.600000	0.032000
-0.000537	1.600000	0.032000
-0.000536	1.600000	0.032000
-0.000535	1.600000	0.032000
-0.000534	1.200000	0.032000
-0.000533	1.200000	0.032000
-0.000532	1.200000	0.024000
-0.000531	1.200000	0.016000
-0.000530	0.800000	0.024000
-0.000529	0.800000	0.016000
-0.000528	0.800000	0.024000
-0.000527	0.400000	0.024000
-0.000526	0.400000	0.016000
-0.000525	0.400000	0.016000
-0.000524	0.400000	0.016000
-0.000523	0.000000	0.016000
-0.000522	0.000000	0.008000
-0.000521	0.000000	0.008000
-0.000520	0.000000	0.008000
-0.000519	-0.400000	0.008000
-0.000518	-0.800000	0.008000
-0.000517	-0.400000	0.008000
-0.000516	-0.800000	0.008000
-0.000515	-0.800000	0.008000
-0.000514	-0.800000	0.008000
-0.000513	-1.200000	0.008000
-0.000512	-1.200000	0.000000
-0.000511	-1.200000	0.000000
-0.000510	-1.200000	0.000000
-0.000509	-1.600000	0.000000
-0.000508	-1.600000	0.000000
-0.000507	-1.600000	0.000000
-0.000506	-2.000000	0.000000
-0.000505	-2.000000	-0.008000
-0.000504	-2.000000	0.000000
-0.000503	-2.400000	-0.008000
-0.000502	-2.400000	-0.008000
-0.000501	-2.400000	-0.008000
-0.000500	-2.400000	-0.008000
-0.000499	-2.800000	-0.008000
-0.000498	-2.800000	-0.016000
-0.000497	-2.800000	-0.016000
-0.000496	-3.200000	-0.024000
-0.000495	-3.200000	-0.016000
-0.000494	-3.600000	-0.016000
-0.000493	-3.600000	-0.016000
-0.000492	-3.600000	-0.016000
-0.000491	-3.600000	-0.016000
-0.000490	-4.000000	-0.024000
-0.000489	-4.000000	-0.024000
-0.000488	-4.000000	-0.024000
-0.000487	-4.000000	-0.024000
-0.000486	-4.400000	-0.032000
-0.000485	-4.400000	-0.032000
-0.000484	-4.800000	-0.032000
-0.000483	-4.800000	-0.032000
-0.000482	-4.800000	-0.032000
-0.000481	-4.800000	-0.032000
-0.000480	-5.200000	-0.032000
-0.000479	-5.200000	-0.040000
-0.000478	-5.200000	-0.032000
-0.000477	-5.200000	-0.032000
-0.000476	-5.600000	-0.040000
-0.000475	-5.600000	-0.040000
-0.000474	-5.600000	-0.040000
-0.000473	-6.000000	-0.040000
-0.000472	-6.000000	-0.040000
-0.000471	-6.000000	-0.040000
-0.000470	-6.400000	-0.048000
-0.000469	-6.400000	-0.048000
-0.000468	-6.400000	-0.048000
-0.000467	-6.400000	-0.048000
-0.000466	-6.400000	-0.048000
-0.000465	-6.800000	-0.056000
-0.000464	-6.800000	-0.056000
-0.000463	-6.800000	-0.056000
-0.000462	-7.200000	-0.056000
-0.000461	-7.200000	-0.056000
-0.000460	-7.200000	-0.056000
-0.000459	-7.600000	-0.064000
-0.000458	-7.600000	-0.064000
-0.000457	-7.600000	-0.064000
-0.000456	-8.000000	-0.056000
-0.000455	-8.000000	-0.064000
-0.000454	-8.000000	-0.064000
-0.000453	-8.000000	-0.072000
-0.000452	-8.000000	-0.072000
-0.000451	-8.000000	-0.072000
-0.000450	-8.400000	-0.072000
-0.000449	-8.800000	-0.072000
-0.000448	-8.400000	-0.072000
-0.000447	-8.800000	-0.072000
-0.000446	-8.800000	-0.080000
-0.000445	-8.800000	-0.072000
-0.000444	-9.200000	-0.080000
-0.000443	-9.200000	-0.080000
-0.000442	-9.600000	-0.080000
-0.000441	-9.600000	-0.080000
-0.000440	-10.000000	-0.080000
-0.000439	-9.600000	-0.088000
-0.000438	-10.000000	-0.088000
-0.000437	-10.000000	-0.088000
-0.000436	-10.400000	-0.088000
-0.000435	-10.400000	-0.088000
-0.000434	-10.400000	-0.088000
-0.000433	-10.400000	-0.088000
-0.000432	-10.800000	-0.088000
-0.000431	-10.800000	-0.088000
-0.000430	-10.800000	-0.096000
-0.000429	-11.200000	-0.096000
-0.000428	-10.800000	-0.096000
-0.000427	-11.200000	-0.096000
-0.000426	-11.200000	-0.096000
-0.000425	-11.200000	-0.096000
-0.000424	-11.600000	-0.104000
-0.000423	-11.600000	-0.104000
-0.000422	-12.000000	-0.096000
-0.000421	-12.000000	-0.104000
-0.000420	-12.000000	-0.112000
-0.000419	-12.000000	-0.104000
-0.000418	-12.400000	-0.104000
-0.000417	-12.400000	-0.112000
-0.000416	-12.400000	-0.112000
-0.000415	-12.400000	-0.112000
-0.000414	-12.400000	-0.112000
-0.000413	-12.800000	-0.112000
-0.000412	-12.800000	-0.112000
-0.000411	-13.200000	-0.120000
-0.000410	-13.200000	-0.120000
-0.000409	-13.200000	-0.120000
-0.000408	-13.200000	-0.120000
-0.000407	-13.600000	-0.120000
-0.000406	-14.000000	-0.120000
-0.000405	-13.600000	-0.128000
-0.000404	-14.000000	-0.128000
-0.000403	-14.000000	-0.128000
-0.000402	-14.000000	-0.128000
-0.000401	-14.000000	-0.128000
-0.000400	-14.400000	-0.128000
-0.000399	-14.400000	-0.128000
-0.000398	-14.800000	-0.128000
-0.000397	-14.400000	-0.128000
-0.000396	-14.800000	-0.136000
-0.000395	-14.400000	-0.136000
-0.000394	-14.800000	-0.136000
-0.000393	-15.200000	-0.136000
-0.000392	-15.200000	-0.136000
-0.000391	-15.200000	-0.136000
-0.000390	-15.200000	-0.144000
-0.000389	-15.600000	-0.144000
-0.000388	-16.000000	-0.144000
-0.000387	-15.600000	-0.152000
-0.000386	-16.000000	-0.144000
-0.000385	-16.000000	-0.144000
-0.000384	-16.400000	-0.144000
-0.000383	-16.400000	-0.144000
-0.000382	-16.400000	-0.144000
-0.000381	-16.400000	-0.152000
-0.000380	-16.800000	-0.152000
-0.000379	-16.800000	-0.152000
-0.000378	-16.800000	-0.152000
-0.000377	-16.800000	-0.152000
-0.000376	-17.200000	-0.152000
-0.000375	-17.200000	-0.160000
-0.000374	-17.200000	-0.160000
-0.000373	-17.200000	-0.160000
-0.000372	-17.600000	-0.160000
-0.000371	-17.600000	-0.160000
-0.000370	-18.000000	-0.160000
-0.000369	-18.000000	-0.168000
-0.000368	-18.000000	-0.168000
-0.000367	-18.000000	-0.160000
-0.000366	-18.400000	-0.168000
-0.000365	-18.400000	-0.168000
-0.000364	-18.400000	-0.160000
-0.000363	-18.400000	-0.176000
-0.000362	-18.800000	-0.176000
-0.000361	-18.800000	-0.176000
-0.000360	-18.800000	-0.176000
-0.000359	-19.200000	-0.176000
-0.000358	-19.200000	-0.176000
-0.000357	-19.200000	-0.176000
-0.000356	-19.600000	-0.176000
-0.000355	-19.600000	-0.184000
-0.000354	-19.600000	-0.176000
-0.000353	-19.600000	-0.184000
-0.000352	-19.600000	-0.184000
-0.000351	-20.000000	-0.184000
-0.000350	-20.400000	-0.184000
-0.000349	-20.000000	-0.184000
-0.000348	-20.400000	-0.192000
-0.000347	-20.400000	-0.184000
-0.000346	-20.400000	-0.184000
-0.000345	-20.400000	-0.192000
-0.000344	-20.800000	-0.192000
-0.000343	-20.800000	-0.200000
-0.000342	-20.800000	-0.200000
-0.000341	-21.200000	-0.200000
-0.000340	-21.200000	-0.200000
-0.000339	-21.600000	-0.192000
-0.000338	-21.600000	-0.200000
-0.000337	-21.600000	-0.200000
-0.000336	-22.000000	-0.200000
-0.000335	-22.000000	-0.208000
-0.000334	-22.000000	-0.200000
-0.000333	-22.000000	-0.208000
-0.000332	-22.400000	-0.208000
-0.000331	-22.400000	-0.208000
-0.000330	-22.400000	-0.216000
-0.000329	-22.800000	-0.216000
-0.000328	-22.800000	-0.208000
-0.000327	-22.800000	-0.216000
-0.000326	-22.800000	-0.216000
-0.000325	-23.200000	-0.216000
-0.000324	-23.200000	-0.216000
-0.000323	-23.200000	-0.216000
-0.000322	-23.600000	-0.224000
-0.000321	-23.600000	-0.224000
-0.000320	-23.600000	-0.224000
-0.000319	-24.000000	-0.224000
-0.000318	-24.000000	-0.224000
-0.000317	-24.000000	-0.224000
-0.000316	-24.400000	-0.232000
-0.000315	-24.000000	-0.224000
-0.000314	-24.400000	-0.224000
-0.000313	-24.400000	-0.232000
-0.000312	-24.400000	-0.232000
-0.000311	-24.800000	-0.240000
-0.000310	-24.800000	-0.232000
-0.000309	-24.800000	-0.240000
-0.000308	-25.200000	-0.240000
-0.000307	-25.200000	-0.240000
-0.000306	-25.200000	-0.240000
-0.000305	-25.600000	-0.240000
-0.000304	-25.600000	-0.240000
-0.000303	-25.600000	-0.240000
-0.000302	-25.600000	-0.248000
-0.000301	-26.000000	-0.248000
-0.000300	-26.000000	-0.248000
-0.000299	-26.000000	-0.248000
-0.000298	-26.000000	-0.248000
-0.000297	-26.400000	-0.248000
-0.000296	-26.400000	-0.256000
-0.000295	-26.400000	-0.256000
-0.000294	-26.800000	-0.256000
-0.000293	-26.800000	-0.248000
-0.000292	-26.800000	-0.256000
-0.000291	-26.800000	-0.256000
-0.000290	-27.200000	-0.256000
-0.000289	-27.200000	-0.256000
-0.000288	-27.200000	-0.256000
-0.000287	-27.200000	-0.264000
-0.000286	-27.200000	-0.264000
-0.000285	-27.600000	-0.264000
-0.000284	-28.000000	-0.264000
-0.000283	-28.000000	-0.264000
-0.000282	-28.000000	-0.264000
-0.000281	-28.400000	-0.272000
-0.000280	-28.400000	-0.272000
-0.000279	-28.400000	-0.272000
-0.000278	-28.400000	-0.280000
-0.000277	-28.800000	-0.272000
-0.000276	-28.800000	-0.280000
-0.000275	-29.200000	-0.280000
-0.000274	-29.200000	-0.280000
-0.000273	-29.200000	-0.280000
-0.000272	-29.200000	-0.280000
-0.000271	-29.200000	-0.280000
-0.000270	-29.200000	-0.280000
-0.000269	-29.200000	-0.280000
-0.000268	-28.800000	-0.280000
-0.000267	-28.800000	-0.280000
-0.000266	-28.800000	-0.280000
-0.000265	-28.400000	-0.280000
-0.000264	-28.400000	-0.280000
-0.000263	-28.400000	-0.272000
-0.000262	-28.400000	-0.280000
-0.000261	-28.000000	-0.272000
-0.000260	-28.000000	-0.272000
-0.000259	-28.000000	-0.272000
-0.000258	-27.600000	-0.272000
-0.000257	-27.600000	-0.272000
-0.000256	-27.200000	-0.264000
-0.000255	-27.200000	-0.264000
-0.000254	-27.200000	-0.264000
-0.000253	-26.800000	-0.264000
-0.000252	-27.200000	-0.256000
-0.000251	-26.800000	-0.264000
-0.000250	-26.800000	-0.264000
-0.000249	-26.400000	-0.256000
-0.000248	-26.400000	-0.256000
-0.000247	-26.400000	-0.256000
-0.000246	-26.400000	-0.256000
-0.000245	-26.400000	-0.256000
-0.000244	-26.000000	-0.256000
-0.000243	-25.600000	-0.256000
-0.000242	-25.600000	-0.256000
-0.000241	-25.600000	-0.248000
-0.000240	-25.600000	-0.248000
-0.000239	-25.600000	-0.248000
-0.000238	-25.200000	-0.248000
-0.000237	-25.200000	-0.248000
-0.000236	-24.800000	-0.248000
-0.000235	-24.800000	-0.248000
-0.000234	-24.800000	-0.248000
-0.000233	-24.800000	-0.240000
-0.000232	-24.400000	-0.240000
-0.000231	-24.400000	-0.248000
-0.000230	-24.400000	-0.240000
-0.000229	-24.000000	-0.240000
-0.000228	-24.000000	-0.240000
-0.000227	-24.000000	-0.240000
-0.000226	-24.000000	-0.240000
-0.000225	-24.000000	-0.232000
-0.000224	-23.600000	-0.240000
-0.000223	-23.200000	-0.240000
-0.000222	-23.600000	-0.232000
-0.000221	-23.200000	-0.232000
-0.000220	-23.200000	-0.232000
-0.000219	-23.200000	-0.232000
-0.000218	-22.800000	-0.232000
-0.000217	-22.800000	-0.224000
-0.000216	-22.800000	-0.224000
-0.000215	-22.800000	-0.224000
-0.000214	-22.400000	-0.224000
-0.000213	-22.800000	-0.224000
-0.000212	-22.400000	-0.224000
-0.000211	-22.000000	-0.224000
-0.000210	-22.000000	-0.224000
-0.000209	-22.000000	-0.216000
-0.000208	-22.000000	-0.216000
-0.000207	-21.600000	-0.216000
-0.000206	-21.200000	-0.216000
-0.000205	-21.600000	-0.216000
-0.000204	-21.200000	-0.216000
-0.000203	-21.200000	-0.216000
-0.000202	-20.800000	-0.208000
-0.000201	-20.800000	-0.208000
-0.000200	-20.800000	-0.216000
-0.000199	-20.800000	-0.208000
-0.000198	-20.400000	-0.208000
-0.000197	-20.400000	-0.208000
-0.000196	-20.400000	-0.208000
-0.000195	-20.400000	-0.200000
-0.000194	-20.000000	-0.200000
-0.000193	-20.000000	-0.200000
-0.000192	-20.000000	-0.200000
-0.000191	-19.600000	-0.200000
-0.000190	-19.600000	-0.200000
-0.000189	-19.200000	-0.200000
-0.000188	-19.200000	-0.200000
-0.000187	-19.200000	-0.200000
-0.000186	-19.200000	-0.200000
-0.000185	-18.800000	-0.200000
-0.000184	-19.200000	-0.192000
-0.000183	-18.800000	-0.192000
-0.000182	-18.800000	-0.192000
-0.000181	-18.400000	-0.192000
-0.000180	-18.400000	-0.184000
-0.000179	-18.400000	-0.192000
-0.000178	-18.400000	-0.184000
-0.000177	-18.000000	-0.184000
-0.000176	-18.000000	-0.184000
-0.000175	-18.000000	-0.184000
-0.000174	-18.000000	-0.184000
-0.000173	-18.000000	-0.184000
-0.000172	-17.600000	-0.176000
-0.000171	-17.200000	-0.176000
-0.000170	-17.600000	-0.176000
-0.000169	-17.200000	-0.176000
-0.000168	-17.200000	-0.176000
-0.000167	-16.800000	-0.176000
-0.000166	-16.800000	-0.176000
-0.000165	-16.800000	-0.168000
-0.000164	-16.800000	-0.168000
-0.000163	-16.400000	-0.168000
-0.000162	-16.400000	-0.168000
-0.000161	-16.400000	-0.168000
-0.000160	-16.000000	-0.168000
-0.000159	-16.000000	-0.168000
-0.000158	-16.000000	-0.168000
-0.000157	-15.600000	-0.168000
-0.000156	-15.600000	-0.168000
-0.000155	-15.600000	-0.160000
-0.000154	-15.200000	-0.160000
-0.000153	-15.200000	-0.160000
-0.000152	-15.200000	-0.160000
-0.000151	-14.800000	-0.160000
-0.000150	-14.800000	-0.152000
-0.000149	-14.800000	-0.152000
-0.000148	-14.800000	-0.152000
-0.000147	-14.400000	-0.152000
-0.000146	-14.400000	-0.152000
-0.000145	-14.400000	-0.152000
-0.000144	-14.400000	-0.152000
-0.000143	-14.400000	-0.144000
-0.000142	-14.000000	-0.152000
-0.000141	-14.000000	-0.144000
-0.000140	-13.600000	-0.144000
-0.000139	-13.600000	-0.144000
-0.000138	-13.600000	-0.144000
-0.000137	-13.600000	-0.144000
-0.000136	-13.200000	-0.144000
-0.000135	-13.200000	-0.144000
-0.000134	-13.200000	-0.136000
-0.000133	-12.800000	-0.136000
-0.000132	-12.800000	-0.136000
-0.000131	-12.800000	-0.136000
-0.000130	-12.400000	-0.136000
-0.000129	-12.800000	-0.136000
-0.000128	-12.400000	-0.128000
-0.000127	-12.400000	-0.128000
-0.000126	-12.000000	-0.128000
-0.000125	-12.000000	-0.128000
-0.000124	-12.000000	-0.128000
-0.000123	-12.000000	-0.128000
-0.000122	-12.000000	-0.128000
-0.000121	-11.600000	-0.120000
-0.000120	-11.600000	-0.128000
-0.000119	-11.200000	-0.120000
-0.000118	-11.200000	-0.120000
-0.000117	-11.200000	-0.120000
-0.000116	-10.800000	-0.120000
-0.000115	-10.800000	-0.112000
-0.000114	-10.800000	-0.120000
-0.000113	-10.800000	-0.120000
-0.000112	-10.400000	-0.112000
-0.000111	-10.400000	-0.112000
-0.000110	-10.400000	-0.112000
-0.000109	-10.000000	-0.112000
-0.000108	-10.000000	-0.112000
-0.000107	-10.000000	-0.112000
-0.000106	-10.000000	-0.120000
-0.000105	-9.600000	-0.112000
-0.000104	-9.600000	-0.112000
-0.000103	-9.600000	-0.112000
-0.000102	-9.200000	-0.104000
-0.000101	-9.600000	-0.096000
-0.000100	-9.200000	-0.104000
-9.900000E-5	-8.800000	-0.096000
-9.800000E-5	-8.800000	-0.104000
-9.700000E-5	-8.800000	-0.096000
-9.600000E-5	-8.800000	-0.096000
-9.500000E-5	-8.400000	-0.096000
-9.400000E-5	-8.400000	-0.096000
-9.300000E-5	-8.400000	-0.096000
-9.200000E-5	-8.000000	-0.096000
-9.100000E-5	-8.000000	-0.088000
-9.000000E-5	-8.000000	-0.088000
-8.900000E-5	-8.000000	-0.088000
-8.800000E-5	-7.600000	-0.088000
-8.700000E-5	-7.600000	-0.088000
-8.600000E-5	-7.600000	-0.088000
-8.500000E-5	-7.600000	-0.088000
-8.400000E-5	-7.200000	-0.088000
-8.300000E-5	-7.200000	-0.088000
-8.200000E-5	-6.800000	-0.080000
-8.100000E-5	-6.800000	-0.080000
-8.000000E-5	-6.800000	-0.080000
-7.900000E-5	-6.400000	-0.080000
-7.800000E-5	-6.800000	-0.080000
-7.700000E-5	-6.400000	-0.072000
-7.600000E-5	-6.400000	-0.072000
-7.500000E-5	-6.400000	-0.072000
-7.400000E-5	-6.000000	-0.072000
-7.300000E-5	-6.000000	-0.064000
-7.200000E-5	-6.000000	-0.072000
-7.100000E-5	-6.000000	-0.072000
-7.000000E-5	-5.600000	-0.064000
-6.900000E-5	-5.200000	-0.064000
-6.800000E-5	-5.600000	-0.064000
-6.700000E-5	-5.200000	-0.064000
-6.600000E-5	-5.200000	-0.064000
-6.500000E-5	-4.800000	-0.064000
-6.400000E-5	-5.200000	-0.064000
-6.300000E-5	-4.800000	-0.064000
-6.200000E-5	-4.800000	-0.056000
-6.100000E-5	-4.800000	-0.056000
-6.000000E-5	-4.400000	-0.056000
-5.900000E-5	-4.400000	-0.056000
-5.800000E-5	-4.000000	-0.064000
-5.700000E-5	-4.000000	-0.056000
-5.600000E-5	-4.000000	-0.048000
-5.500000E-5	-4.000000	-0.048000
-5.400000E-5	-3.600000	-0.056000
-5.300000E-5	-4.000000	-0.048000
-5.200000E-5	-3.600000	-0.048000
-5.100000E-5	-3.200000	-0.048000
-5.000000E-5	-3.200000	-0.048000
-4.900000E-5	-3.600000	-0.040000
-4.800000E-5	-2.800000	-0.040000
-4.700000E-5	-2.800000	-0.040000
-4.600000E-5	-2.800000	-0.040000
-4.500000E-5	-2.800000	-0.040000
-4.400000E-5	-2.400000	-0.040000
-4.300000E-5	-2.400000	-0.032000
-4.200000E-5	-2.000000	-0.032000
-4.100000E-5	-2.000000	-0.040000
-4.000000E-5	-2.000000	-0.032000
-3.900000E-5	-2.000000	-0.032000
-3.800000E-5	-2.000000	-0.032000
-3.700000E-5	-1.600000	-0.032000
-3.600000E-5	-1.200000	-0.032000
-3.500000E-5	-1.200000	-0.024000
-3.400000E-5	-1.200000	-0.024000
-3.300000E-5	-1.200000	-0.024000
-3.200000E-5	-0.800000	-0.024000
-3.100000E-5	-0.800000	-0.024000
-3.000000E-5	-0.800000	-0.016000
-2.900000E-5	-0.400000	-0.016000
-2.800000E-5	-0.400000	-0.024000
-2.700000E-5	-0.400000	-0.016000
-2.600000E-5	-0.400000	-0.016000
-2.500000E-5	0.000000	-0.016000
-2.400000E-5	0.000000	-0.008000
-2.300000E-5	0.000000	-0.008000
-2.200000E-5	0.000000	-0.008000
-2.100000E-5	0.000000	-0.008000
-2.000000E-5	0.400000	-0.008000
-1.900000E-5	0.400000	-0.008000
-1.800000E-5	0.400000	-0.008000
-1.700000E-5	0.800000	-0.008000
-1.600000E-5	0.800000	-0.008000
-1.500000E-5	0.800000	0.000000
-1.400000E-5	0.800000	0.000000
-1.300000E-5	1.200000	0.000000
-1.200000E-5	1.200000	0.000000
-1.100000E-5	1.200000	0.000000
-1.000000E-5	1.200000	0.000000
-9.000000E-6	1.600000	0.008000
-8.000000E-6	1.600000	0.000000
-7.000000E-6	1.600000	0.008000
-6.000000E-6	2.000000	0.008000
-5.000000E-6	2.000000	0.008000
-4.000000E-6	2.000000	0.008000
-3.000000E-6	2.400000	0.016000
-2.000000E-6	2.400000	0.008000
-1.000000E-6	2.400000	0.016000
0.000000	2.400000	0.016000
1.000000E-6	3.200000	0.016000
2.000000E-6	2.800000	0.016000
3.000000E-6	3.200000	0.016000
4.000000E-6	3.200000	0.016000
5.000000E-6	3.600000	0.024000
6.000000E-6	3.200000	0.024000
7.000000E-6	3.600000	0.016000
8.000000E-6	3.600000	0.024000
9.000000E-6	3.600000	0.024000
1.000000E-5	3.600000	0.032000
1.100000E-5	4.000000	0.024000
1.200000E-5	4.000000	0.032000
1.300000E-5	4.000000	0.024000
1.400000E-5	4.400000	0.032000
1.500000E-5	4.400000	0.024000
1.600000E-5	4.800000	0.032000
1.700000E-5	4.800000	0.032000
1.800000E-5	4.800000	0.032000
1.900000E-5	4.800000	0.040000
2.000000E-5	4.800000	0.032000
2.100000E-5	5.200000	0.040000
2.200000E-5	5.200000	0.040000
2.300000E-5	5.200000	0.040000
2.400000E-5	5.600000	0.040000
2.500000E-5	5.600000	0.040000
2.600000E-5	5.600000	0.040000
2.700000E-5	5.600000	0.040000
2.800000E-5	5.600000	0.040000
2.900000E-5	6.000000	0.040000
3.000000E-5	6.000000	0.048000
3.100000E-5	6.000000	0.048000
3.200000E-5	6.400000	0.048000
3.300000E-5	6.400000	0.048000
3.400000E-5	6.400000	0.048000
3.500000E-5	6.800000	0.048000
3.600000E-5	6.800000	0.064000
3.700000E-5	6.800000	0.056000
3.800000E-5	7.200000	0.056000
3.900000E-5	7.200000	0.056000
4.000000E-5	7.200000	0.064000
4.100000E-5	7.600000	0.064000
4.200000E-5	7.600000	0.064000
4.300000E-5	8.000000	0.064000
4.400000E-5	7.600000	0.064000
4.500000E-5	8.000000	0.064000
4.600000E-5	8.000000	0.064000
4.700000E-5	8.000000	0.064000
4.800000E-5	8.400000	0.064000
4.900000E-5	8.400000	0.072000
5.000000E-5	8.800000	0.072000
5.100000E-5	8.800000	0.072000
5.200000E-5	8.800000	0.064000
5.300000E-5	8.800000	0.072000
5.400000E-5	9.200000	0.072000
5.500000E-5	9.200000	0.080000
5.600000E-5	9.200000	0.080000
5.700000E-5	9.200000	0.080000
5.800000E-5	9.200000	0.080000
5.900000E-5	9.600000	0.080000
6.000000E-5	9.600000	0.088000
6.100000E-5	9.600000	0.080000
6.200000E-5	10.000000	0.088000
6.300000E-5	10.000000	0.088000
6.400000E-5	10.400000	0.088000
6.500000E-5	10.400000	0.088000
6.600000E-5	10.400000	0.088000
6.700000E-5	10.400000	0.096000
6.800000E-5	10.800000	0.088000
6.900000E-5	10.400000	0.096000
7.000000E-5	10.800000	0.096000
7.100000E-5	10.800000	0.096000
7.200000E-5	10.800000	0.096000
7.300000E-5	11.200000	0.096000
7.400000E-5	11.200000	0.104000
7.500000E-5	11.200000	0.096000
7.600000E-5	11.200000	0.104000
7.700000E-5	11.600000	0.104000
7.800000E-5	11.600000	0.104000
7.900000E-5	11.600000	0.104000
8.000000E-5	12.000000	0.104000
8.100000E-5	12.000000	0.112000
8.200000E-5	12.000000	0.112000
8.300000E-5	12.400000	0.112000
8.400000E-5	12.400000	0.112000
8.500000E-5	12.400000	0.112000
8.600000E-5	12.400000	0.112000
8.700000E-5	12.800000	0.112000
8.800000E-5	13.200000	0.112000
8.900000E-5	13.200000	0.112000
9.000000E-5	13.200000	0.120000
9.100000E-5	13.200000	0.120000
9.200000E-5	13.600000	0.120000
9.300000E-5	13.600000	0.120000
9.400000E-5	13.600000	0.120000
9.500000E-5	13.600000	0.120000
9.600000E-5	13.600000	0.120000
9.700000E-5	13.600000	0.120000
9.800000E-5	14.000000	0.120000
9.900000E-5	14.000000	0.120000
1.000000E-4	14.400000	0.128000
0.000101	14.400000	0.120000
0.000102	14.400000	0.128000
0.000103	14.800000	0.128000
0.000104	14.800000	0.128000
0.000105	14.800000	0.136000
0.000106	15.200000	0.128000
0.000107	15.200000	0.136000
0.000108	15.200000	0.136000
0.000109	15.600000	0.136000
0.000110	15.600000	0.144000
0.000111	15.600000	0.136000
0.000112	15.600000	0.136000
0.000113	16.000000	0.144000
0.000114	16.000000	0.144000
0.000115	16.000000	0.144000
0.000116	16.400000	0.144000
0.000117	16.400000	0.144000
0.000118	16.400000	0.144000
0.000119	16.400000	0.152000
0.000120	16.800000	0.152000
0.000121	17.200000	0.152000
0.000122	17.200000	0.152000
0.000123	17.200000	0.152000
0.000124	17.200000	0.160000
0.000125	17.200000	0.160000
0.000126	17.200000	0.152000
0.000127	17.600000	0.152000
0.000128	17.600000	0.168000
0.000129	17.600000	0.160000
0.000130	17.600000	0.168000
0.000131	18.000000	0.168000
0.000132	18.000000	0.168000
0.000133	18.000000	0.168000
0.000134	18.000000	0.168000
0.000135	18.400000	0.168000
0.000136	18.400000	0.168000
0.000137	18.800000	0.168000
0.000138	18.800000	0.168000
0.000139	18.800000	0.176000
0.000140	18.800000	0.176000
0.000141	18.800000	0.176000
0.000142	19.200000	0.176000
0.000143	19.200000	0.176000
0.000144	19.200000	0.184000
0.000145	19.600000	0.176000
0.000146	19.600000	0.184000
0.000147	19.600000	0.184000
0.000148	20.000000	0.184000
0.000149	20.000000	0.184000
0.000150	20.000000	0.184000
0.000151	20.000000	0.184000
0.000152	20.000000	0.192000
0.000153	20.400000	0.192000
0.000154	20.400000	0.192000
0.000155	20.800000	0.192000
0.000156	20.800000	0.192000
0.000157	20.800000	0.200000
0.000158	21.200000	0.200000
0.000159	20.800000	0.192000
0.000160	21.200000	0.200000
0.000161	21.600000	0.200000
0.000162	21.600000	0.200000
0.000163	21.600000	0.200000
0.000164	21.600000	0.200000
0.000165	22.000000	0.200000
0.000166	22.000000	0.200000
0.000167	22.000000	0.200000
0.000168	22.000000	0.200000
0.000169	22.400000	0.208000
0.000170	22.400000	0.208000
0.000171	22.400000	0.208000
0.000172	22.800000	0.208000
0.000173	22.800000	0.208000
0.000174	22.800000	0.208000
0.000175	23.200000	0.216000
0.000176	23.200000	0.208000
0.000177	23.200000	0.216000
0.000178	23.200000	0.216000
0.000179	23.600000	0.216000
0.000180	23.600000	0.224000
0.000181	23.600000	0.216000
0.000182	23.600000	0.224000
0.000183	24.000000	0.224000
0.000184	24.000000	0.224000
0.000185	24.000000	0.224000
0.000186	24.400000	0.232000
0.000187	24.400000	0.232000
0.000188	24.400000	0.232000
0.000189	24.800000	0.232000
0.000190	24.800000	0.232000
0.000191	24.800000	0.232000
0.000192	24.800000	0.240000
0.000193	25.200000	0.240000
0.000194	25.200000	0.232000
0.000195	25.200000	0.240000
0.000196	25.600000	0.240000
0.000197	25.600000	0.240000
0.000198	25.600000	0.248000
0.000199	25.600000	0.248000
0.000200	25.600000	0.248000
0.000201	26.000000	0.248000
0.000202	26.000000	0.248000
0.000203	26.400000	0.248000
0.000204	26.400000	0.248000
0.000205	26.400000	0.248000
0.000206	26.400000	0.256000
0.000207	26.400000	0.256000
0.000208	26.800000	0.256000
0.000209	26.800000	0.256000
0.000210	26.800000	0.256000
0.000211	26.800000	0.264000
0.000212	27.200000	0.264000
0.000213	27.600000	0.264000
0.000214	27.600000	0.264000
0.000215	27.600000	0.264000
0.000216	27.600000	0.264000
0.000217	28.000000	0.264000
0.000218	28.000000	0.272000
0.000219	28.000000	0.264000
0.000220	28.400000	0.264000
0.000221	28.400000	0.272000
0.000222	28.000000	0.272000
0.000223	28.800000	0.272000
0.000224	28.800000	0.272000
0.000225	28.800000	0.272000
0.000226	28.800000	0.272000
0.000227	28.800000	0.280000
0.000228	29.200000	0.280000
0.000229	29.200000	0.280000
0.000230	28.800000	0.280000
0.000231	28.800000	0.272000
0.000232	28.800000	0.280000
0.000233	28.800000	0.272000
0.000234	28.800000	0.272000
0.000235	28.400000	0.272000
0.000236	28.400000	0.280000
0.000237	28.000000	0.272000
0.000238	28.000000	0.272000
0.000239	28.000000	0.272000
0.000240	27.600000	0.272000
0.000241	28.000000	0.264000
0.000242	27.600000	0.272000
0.000243	27.600000	0.264000
0.000244	27.600000	0.264000
0.000245	27.200000	0.264000
0.000246	27.200000	0.264000
0.000247	26.800000	0.264000
0.000248	26.800000	0.264000
0.000249	26.400000	0.264000
0.000250	26.400000	0.256000
0.000251	26.400000	0.264000
0.000252	26.400000	0.256000
0.000253	26.400000	0.256000
0.000254	26.000000	0.256000
0.000255	26.000000	0.256000
0.000256	26.000000	0.256000
0.000257	25.600000	0.256000
0.000258	25.600000	0.256000
0.000259	25.600000	0.256000
0.000260	25.600000	0.256000
0.000261	25.600000	0.248000
0.000262	25.200000	0.248000
0.000263	25.200000	0.248000
0.000264	24.800000	0.248000
0.000265	24.800000	0.240000
0.000266	24.800000	0.248000
0.000267	24.800000	0.248000
0.000268	24.400000	0.240000
0.000269	24.400000	0.240000
0.000270	24.400000	0.240000
0.000271	24.400000	0.240000
0.000272	24.000000	0.240000
0.000273	24.000000	0.240000
0.000274	24.000000	0.240000
0.000275	23.600000	0.232000
0.000276	23.600000	0.232000
0.000277	23.600000	0.232000
0.000278	23.600000	0.232000
0.000279	23.200000	0.232000
0.000280	23.200000	0.232000
0.000281	23.200000	0.224000
0.000282	22.800000	0.232000
0.000283	22.800000	0.224000
0.000284	22.800000	0.224000
0.000285	22.400000	0.224000
0.000286	22.400000	0.224000
0.000287	22.400000	0.224000
0.000288	22.400000	0.224000
0.000289	22.000000	0.216000
0.000290	22.000000	0.216000
0.000291	22.000000	0.216000
0.000292	21.600000	0.216000
0.000293	21.600000	0.216000
0.000294	21.600000	0.208000
0.000295	21.200000	0.216000
0.000296	21.200000	0.208000
0.000297	21.200000	0.208000
0.000298	21.200000	0.216000
0.000299	20.800000	0.208000
0.000300	20.800000	0.208000
0.000301	20.800000	0.208000
0.000302	20.800000	0.208000
0.000303	20.400000	0.200000
0.000304	20.000000	0.200000
0.000305	20.400000	0.200000
0.000306	20.000000	0.200000
0.000307	20.000000	0.200000
0.000308	20.000000	0.200000
0.000309	19.600000	0.200000
0.000310	19.600000	0.200000
0.000311	19.600000	0.200000
0.000312	19.200000	0.200000
0.000313	19.200000	0.192000
0.000314	19.200000	0.192000
0.000315	18.800000	0.192000
0.000316	18.800000	0.192000
0.000317	18.800000	0.192000
0.000318	18.800000	0.192000
0.000319	18.800000	0.192000
0.000320	18.400000	0.184000
0.000321	18.400000	0.184000
0.000322	18.000000	0.192000
0.000323	18.000000	0.184000
0.000324	18.000000	0.184000
0.000325	18.000000	0.184000
0.000326	18.000000	0.184000
0.000327	17.600000	0.184000
0.000328	17.600000	0.176000
0.000329	17.600000	0.176000
0.000330	17.200000	0.176000
0.000331	17.200000	0.176000
0.000332	17.200000	0.176000
0.000333	17.200000	0.168000
0.000334	17.200000	0.168000
0.000335	16.800000	0.176000
0.000336	16.800000	0.176000
0.000337	16.400000	0.168000
0.000338	16.400000	0.168000
0.000339	16.400000	0.168000
0.000340	16.400000	0.168000
0.000341	16.000000	0.160000
0.000342	16.000000	0.168000
0.000343	16.000000	0.160000
0.000344	16.000000	0.168000
0.000345	15.600000	0.160000
0.000346	15.600000	0.160000
0.000347	15.600000	0.160000
0.000348	15.200000	0.160000
0.000349	15.200000	0.160000
0.000350	14.800000	0.160000
0.000351	14.800000	0.160000
0.000352	14.800000	0.152000
0.000353	14.400000	0.152000
0.000354	14.400000	0.152000
0.000355	14.400000	0.152000
0.000356	14.000000	0.152000
0.000357	14.000000	0.152000
0.000358	14.000000	0.144000
0.000359	14.000000	0.144000
0.000360	14.000000	0.144000
0.000361	13.600000	0.152000
0.000362	13.600000	0.144000
0.000363	13.600000	0.144000
0.000364	13.200000	0.144000
0.000365	13.200000	0.144000
0.000366	13.200000	0.136000
0.000367	12.800000	0.136000
0.000368	12.800000	0.136000
0.000369	12.400000	0.136000
0.000370	12.800000	0.128000
0.000371	12.400000	0.136000
0.000372	12.000000	0.128000
0.000373	12.400000	0.136000
0.000374	12.000000	0.128000
0.000375	12.000000	0.128000
0.000376	12.000000	0.128000
0.000377	11.600000	0.128000
0.000378	11.600000	0.128000
0.000379	11.600000	0.128000
0.000380	11.600000	0.120000
0.000381	11.200000	0.120000
0.000382	11.600000	0.120000
0.000383	11.200000	0.120000
0.000384	10.800000	0.120000
0.000385	10.800000	0.112000
0.000386	10.800000	0.112000
0.000387	10.800000	0.112000
0.000388	10.400000	0.112000
0.000389	10.400000	0.112000
0.000390	10.400000	0.112000
0.000391	10.000000	0.112000
0.000392	10.000000	0.112000
0.000393	10.000000	0.104000
0.000394	9.600000	0.112000
0.000395	9.600000	0.112000
0.000396	9.600000	0.104000
0.000397	9.600000	0.104000
0.000398	9.600000	0.104000
0.000399	9.200000	0.104000
0.000400	9.200000	0.104000
0.000401	9.200000	0.104000
0.000402	9.200000	0.096000
0.000403	8.800000	0.096000
0.000404	8.800000	0.104000
0.000405	8.400000	0.096000
0.000406	8.400000	0.096000
0.000407	8.000000	0.096000
0.000408	8.000000	0.096000
0.000409	8.400000	0.088000
0.000410	8.000000	0.088000
0.000411	7.600000	0.088000
0.000412	7.600000	0.088000
0.000413	7.600000	0.080000
0.000414	7.600000	0.088000
0.000415	7.200000	0.088000
0.000416	7.200000	0.080000
0.000417	7.200000	0.080000
0.000418	6.800000	0.080000
0.000419	6.800000	0.080000
0.000420	6.800000	0.080000
0.000421	6.800000	0.080000
0.000422	6.800000	0.080000
0.000423	6.400000	0.072000
0.000424	6.400000	0.072000
0.000425	6.400000	0.072000
0.000426	6.000000	0.072000
0.000427	6.000000	0.072000
0.000428	6.000000	0.072000
0.000429	5.600000	0.064000
0.000430	5.600000	0.072000
0.000431	5.600000	0.072000
0.000432	5.200000	0.064000
0.000433	5.600000	0.064000
0.000434	5.200000	0.064000
0.000435	4.800000	0.064000
0.000436	4.800000	0.064000
0.000437	4.800000	0.056000
0.000438	4.800000	0.056000
0.000439	4.800000	0.048000
0.000440	4.400000	0.056000
0.000441	4.400000	0.056000
0.000442	4.000000	0.048000
0.000443	4.000000	0.048000
0.000444	4.000000	0.048000
0.000445	4.000000	0.048000
0.000446	4.000000	0.040000
0.000447	3.600000	0.048000
0.000448	3.600000	0.048000
0.000449	3.600000	0.040000
0.000450	3.600000	0.048000
0.000451	3.200000	0.040000
0.000452	2.800000	0.040000
0.000453	3.200000	0.040000
0.000454	2.800000	0.040000
0.000455	2.800000	0.040000
0.000456	2.800000	0.040000
0.000457	2.400000	0.032000
0.000458	2.400000	0.040000
0.000459	2.000000	0.032000
0.000460	2.000000	0.040000
0.000461	2.000000	0.032000
0.000462	1.600000	0.032000
0.000463	1.600000	0.032000
0.000464	1.600000	0.032000
0.000465	1.600000	0.024000
0.000466	1.600000	0.024000
0.000467	1.200000	0.032000
0.000468	1.200000	0.024000
0.000469	1.200000	0.024000
0.000470	0.800000	0.024000
0.000471	0.800000	0.024000
0.000472	0.800000	0.024000
0.000473	0.800000	0.016000
0.000474	0.400000	0.024000
0.000475	0.400000	0.016000
0.000476	0.400000	0.016000
0.000477	0.400000	0.016000
0.000478	0.000000	0.016000
0.000479	0.000000	0.008000
0.000480	0.000000	0.008000
0.000481	-0.400000	0.008000
0.000482	-0.400000	0.008000
0.000483	-0.800000	0.008000
0.000484	-0.800000	0.008000
0.000485	-0.800000	0.000000
0.000486	-0.800000	0.008000
0.000487	-0.800000	0.008000
0.000488	-1.200000	0.008000
0.000489	-1.200000	0.000000
0.000490	-1.600000	0.000000
0.000491	-1.600000	0.000000
0.000492	-1.600000	0.000000
0.000493	-1.600000	0.000000
0.000494	-1.600000	0.000000
0.000495	-2.000000	-0.008000
0.000496	-2.000000	-0.008000
0.000497	-2.400000	-0.008000
0.000498	-2.400000	-0.008000
0.000499	-2.400000	-0.008000
0.000500	-2.400000	-0.008000
0.000501	-2.400000	-0.008000
0.000502	-2.800000	-0.016000
0.000503	-3.200000	-0.008000
0.000504	-3.200000	-0.016000
0.000505	-3.200000	-0.016000
0.000506	-3.200000	-0.016000
0.000507	-3.200000	-0.016000
0.000508	-3.600000	-0.016000
0.000509	-3.600000	-0.016000
0.000510	-4.000000	-0.024000
0.000511	-4.000000	-0.024000
0.000512	-4.400000	-0.024000
0.000513	-4.400000	-0.024000
0.000514	-4.400000	-0.032000
0.000515	-4.400000	-0.032000
0.000516	-4.800000	-0.032000
0.000517	-4.800000	-0.040000
0.000518	-4.800000	-0.032000
0.000519	-4.800000	-0.032000
0.000520	-4.800000	-0.032000
0.000521	-4.800000	-0.040000
0.000522	-5.200000	-0.040000
0.000523	-5.600000	-0.040000
0.000524	-5.200000	-0.040000
0.000525	-5.600000	-0.040000
0.000526	-5.600000	-0.040000
0.000527	-5.600000	-0.040000
0.000528	-6.000000	-0.040000
0.000529	-6.000000	-0.040000
0.000530	-6.000000	-0.048000
0.000531	-6.400000	-0.048000
0.000532	-6.400000	-0.048000
0.000533	-6.400000	-0.048000
0.000534	-6.400000	-0.048000
0.000535	-6.800000	-0.048000
0.000536	-6.800000	-0.056000
0.000537	-6.800000	-0.056000
0.000538	-7.200000	-0.056000
0.000539	-7.200000	-0.056000
0.000540	-7.200000	-0.064000
0.000541	-7.600000	-0.064000
0.000542	-7.600000	-0.064000
0.000543	-7.600000	-0.064000
0.000544	-8.000000	-0.064000
0.000545	-8.000000	-0.064000
0.000546	-8.000000	-0.072000
0.000547	-8.000000	-0.072000
0.000548	-8.000000	-0.072000
0.000549	-8.400000	-0.072000
0.000550	-8.800000	-0.064000
0.000551	-8.400000	-0.072000
0.000552	-8.400000	-0.072000
0.000553	-8.800000	-0.072000
0.000554	-8.800000	-0.072000
0.000555	-9.200000	-0.080000
0.000556	-9.200000	-0.072000
0.000557	-9.600000	-0.080000
0.000558	-9.200000	-0.080000
0.000559	-9.600000	-0.080000
0.000560	-9.600000	-0.080000
0.000561	-10.000000	-0.080000
0.000562	-10.000000	-0.088000
0.000563	-10.000000	-0.088000
0.000564	-10.000000	-0.080000
0.000565	-10.400000	-0.088000
0.000566	-10.400000	-0.088000
0.000567	-10.400000	-0.088000
0.000568	-10.800000	-0.088000
0.000569	-10.800000	-0.088000
0.000570	-10.800000	-0.096000
0.000571	-10.800000	-0.096000
0.000572	-10.800000	-0.096000
0.000573	-11.200000	-0.096000
0.000574	-11.200000	-0.096000
0.000575	-11.200000	-0.096000
0.000576	-11.600000	-0.096000
0.000577	-11.600000	-0.104000
0.000578	-11.600000	-0.104000
0.000579	-12.000000	-0.104000
0.000580	-12.000000	-0.112000
0.000581	-12.000000	-0.112000
0.000582	-12.000000	-0.112000
0.000583	-12.400000	-0.112000
0.000584	-12.400000	-0.112000
0.000585	-12.400000	-0.112000
0.000586	-12.800000	-0.112000
0.000587	-12.800000	-0.112000
0.000588	-13.200000	-0.120000
0.000589	-12.800000	-0.120000
0.000590	-13.200000	-0.120000
0.000591	-13.200000	-0.120000
0.000592	-13.600000	-0.120000
0.000593	-13.600000	-0.120000
0.000594	-13.600000	-0.120000
0.000595	-14.000000	-0.120000
0.000596	-14.000000	-0.128000
0.000597	-14.000000	-0.120000
0.000598	-14.000000	-0.128000
0.000599	-14.400000	-0.128000
0.000600	-14.400000	-0.128000
0.000601	-14.400000	-0.128000
0.000602	-14.400000	-0.128000
0.000603	-14.800000	-0.128000
0.000604	-14.800000	-0.136000
0.000605	-14.800000	-0.136000
0.000606	-14.800000	-0.136000
0.000607	-15.200000	-0.136000
0.000608	-15.200000	-0.144000
0.000609	-15.200000	-0.136000
0.000610	-15.600000	-0.136000
0.000611	-15.600000	-0.144000
0.000612	-16.000000	-0.144000
0.000613	-16.000000	-0.144000
0.000614	-16.000000	-0.144000
0.000615	-16.400000	-0.144000
0.000616	-16.400000	-0.144000
0.000617	-16.400000	-0.144000
0.000618	-16.800000	-0.152000
0.000619	-16.800000	-0.152000
0.000620	-16.800000	-0.152000
0.000621	-16.800000	-0.152000
0.000622	-16.800000	-0.152000
0.000623	-17.200000	-0.160000
0.000624	-16.800000	-0.160000
0.000625	-17.200000	-0.160000
0.000626	-17.200000	-0.160000
0.000627	-17.600000	-0.160000
0.000628	-17.600000	-0.160000
0.000629	-17.600000	-0.160000
0.000630	-18.000000	-0.160000
0.000631	-18.000000	-0.168000
0.000632	-18.000000	-0.168000
0.000633	-18.400000	-0.168000
0.000634	-18.400000	-0.168000
0.000635	-18.400000	-0.168000
0.000636	-18.400000	-0.168000
0.000637	-18.800000	-0.168000
0.000638	-18.800000	-0.176000
0.000639	-18.800000	-0.168000
0.000640	-18.800000	-0.176000
0.000641	-19.200000	-0.176000
0.000642	-19.200000	-0.184000
0.000643	-19.200000	-0.176000
0.000644	-19.200000	-0.184000
0.000645	-19.600000	-0.176000
0.000646	-19.600000	-0.184000
0.000647	-20.000000	-0.184000
0.000648	-20.000000	-0.184000
0.000649	-20.000000	-0.184000
0.000650	-20.000000	-0.184000
0.000651	-20.000000	-0.184000
0.000652	-20.400000	-0.192000
0.000653	-20.400000	-0.192000
0.000654	-20.400000	-0.192000
0.000655	-20.400000	-0.192000
0.000656	-20.800000	-0.192000
0.000657	-20.800000	-0.200000
0.000658	-21.200000	-0.200000
0.000659	-21.200000	-0.200000
0.000660	-21.200000	-0.200000
0.000661	-21.600000	-0.200000
0.000662	-21.200000	-0.200000
0.000663	-22.000000	-0.200000
0.000664	-21.600000	-0.200000
0.000665	-22.000000	-0.208000
0.000666	-22.000000	-0.208000
0.000667	-22.400000	-0.208000
0.000668	-22.400000	-0.208000
0.000669	-22.400000	-0.208000
0.000670	-22.400000	-0.208000
0.000671	-22.400000	-0.216000
0.000672	-22.800000	-0.216000
0.000673	-22.800000	-0.216000
0.000674	-22.800000	-0.216000
0.000675	-23.200000	-0.216000
0.000676	-23.200000	-0.216000
0.000677	-23.600000	-0.216000
0.000678	-23.600000	-0.224000
0.000679	-23.200000	-0.216000
0.000680	-23.600000	-0.224000
0.000681	-23.600000	-0.224000
0.000682	-23.600000	-0.224000
0.000683	-24.400000	-0.224000
0.000684	-24.400000	-0.224000
0.000685	-24.000000	-0.232000
0.000686	-24.400000	-0.232000
0.000687	-24.400000	-0.232000
0.000688	-24.400000	-0.232000
0.000689	-24.400000	-0.232000
0.000690	-24.800000	-0.232000
0.000691	-24.800000	-0.232000
0.000692	-24.800000	-0.232000
0.000693	-24.800000	-0.232000
0.000694	-25.200000	-0.240000
0.000695	-25.200000	-0.240000
0.000696	-25.600000	-0.248000
0.000697	-25.600000	-0.240000
0.000698	-25.600000	-0.248000
0.000699	-25.600000	-0.248000
0.000700	-26.000000	-0.248000
0.000701	-26.000000	-0.248000
0.000702	-26.400000	-0.248000
0.000703	-26.400000	-0.248000
0.000704	-26.400000	-0.248000
0.000705	-26.800000	-0.256000
0.000706	-26.800000	-0.248000
0.000707	-26.800000	-0.256000
0.000708	-26.800000	-0.256000
0.000709	-26.800000	-0.256000
0.000710	-27.200000	-0.256000
0.000711	-27.200000	-0.264000
0.000712	-27.200000	-0.256000
0.000713	-27.600000	-0.256000
0.000714	-27.600000	-0.264000
0.000715	-27.600000	-0.264000
0.000716	-28.000000	-0.264000
0.000717	-28.000000	-0.264000
0.000718	-28.000000	-0.272000
0.000719	-28.400000	-0.264000
0.000720	-28.400000	-0.272000
0.000721	-28.400000	-0.272000
0.000722	-28.800000	-0.280000
0.000723	-28.800000	-0.272000
0.000724	-28.800000	-0.280000
0.000725	-28.800000	-0.272000
0.000726	-28.800000	-0.280000
0.000727	-29.200000	-0.280000
0.000728	-29.200000	-0.280000
0.000729	-29.600000	-0.280000
0.000730	-29.200000	-0.280000
0.000731	-29.200000	-0.280000
0.000732	-28.800000	-0.280000
0.000733	-28.800000	-0.280000
0.000734	-28.800000	-0.280000
0.000735	-28.400000	-0.280000
0.000736	-28.400000	-0.280000
0.000737	-28.400000	-0.272000
0.000738	-28.400000	-0.272000
0.000739	-28.000000	-0.272000
0.000740	-28.000000	-0.272000
0.000741	-28.000000	-0.264000
0.000742	-27.600000	-0.264000
0.000743	-27.600000	-0.264000
0.000744	-27.600000	-0.264000
0.000745	-27.200000	-0.264000
0.000746	-27.200000	-0.264000
0.000747	-27.200000	-0.264000
0.000748	-26.800000	-0.256000
0.000749	-26.800000	-0.264000
0.000750	-26.800000	-0.256000
0.000751	-26.400000	-0.264000
0.000752	-26.400000	-0.256000
0.000753	-26.400000	-0.256000
0.000754	-26.400000	-0.256000
0.000755	-26.400000	-0.256000
0.000756	-26.000000	-0.256000
0.000757	-26.000000	-0.256000
0.000758	-26.000000	-0.256000
0.000759	-25.600000	-0.256000
0.000760	-25.600000	-0.256000
0.000761	-25.600000	-0.248000
0.000762	-25.200000	-0.248000
0.000763	-25.200000	-0.248000
0.000764	-25.200000	-0.248000
0.000765	-24.800000	-0.248000
0.000766	-24.800000	-0.248000
0.000767	-24.800000	-0.240000
0.000768	-24.400000	-0.240000
0.000769	-24.400000	-0.240000
0.000770	-24.400000	-0.240000
0.000771	-24.400000	-0.240000
0.000772	-24.400000	-0.240000
0.000773	-24.000000	-0.240000
0.000774	-24.000000	-0.240000
0.000775	-23.600000	-0.232000
0.000776	-23.600000	-0.232000
0.000777	-23.600000	-0.232000
0.000778	-23.600000	-0.232000
0.000779	-23.600000	-0.232000
0.000780	-23.200000	-0.232000
0.000781	-23.200000	-0.232000
0.000782	-23.200000	-0.224000
0.000783	-22.800000	-0.232000
0.000784	-22.800000	-0.224000
0.000785	-22.800000	-0.224000
0.000786	-22.400000	-0.224000
0.000787	-22.400000	-0.224000
0.000788	-22.400000	-0.224000
0.000789	-22.400000	-0.224000
0.000790	-22.000000	-0.224000
0.000791	-22.400000	-0.224000
0.000792	-22.000000	-0.224000
0.000793	-21.600000	-0.216000
0.000794	-21.600000	-0.216000
0.000795	-21.200000	-0.216000
0.000796	-21.200000	-0.216000
0.000797	-21.200000	-0.208000
0.000798	-21.200000	-0.208000
0.000799	-20.800000	-0.216000
0.000800	-20.800000	-0.216000
0.000801	-20.400000	-0.208000
0.000802	-20.400000	-0.208000
0.000803	-20.400000	-0.208000
0.000804	-20.400000	-0.208000
0.000805	-20.400000	-0.208000
0.000806	-20.000000	-0.208000
0.000807	-20.000000	-0.200000
0.000808	-20.000000	-0.200000
0.000809	-19.600000	-0.200000
0.000810	-19.600000	-0.200000
0.000811	-19.600000	-0.200000
0.000812	-19.200000	-0.200000
0.000813	-19.200000	-0.200000
0.000814	-19.200000	-0.192000
0.000815	-19.200000	-0.192000
0.000816	-18.800000	-0.192000
0.000817	-18.800000	-0.192000
0.000818	-18.800000	-0.192000
0.000819	-18.400000	-0.184000
0.000820	-18.400000	-0.192000
0.000821	-18.400000	-0.192000
0.000822	-18.400000	-0.184000
0.000823	-18.400000	-0.184000
0.000824	-18.000000	-0.184000
0.000825	-18.000000	-0.184000
0.000826	-18.000000	-0.184000
0.000827	-17.600000	-0.176000
0.000828	-17.600000	-0.184000
0.000829	-17.600000	-0.176000
0.000830	-17.200000	-0.176000
0.000831	-17.200000	-0.176000
0.000832	-17.200000	-0.176000
0.000833	-17.200000	-0.176000
0.000834	-17.200000	-0.176000
0.000835	-16.800000	-0.176000
0.000836	-16.800000	-0.168000
0.000837	-16.400000	-0.168000
0.000838	-16.400000	-0.168000
0.000839	-16.400000	-0.168000
0.000840	-16.400000	-0.168000
0.000841	-16.000000	-0.168000
0.000842	-16.000000	-0.168000
0.000843	-15.600000	-0.168000
0.000844	-15.600000	-0.168000
0.000845	-15.600000	-0.160000
0.000846	-15.200000	-0.160000
0.000847	-15.200000	-0.160000
0.000848	-15.200000	-0.152000
0.000849	-15.200000	-0.160000
0.000850	-14.800000	-0.152000
0.000851	-14.800000	-0.152000
0.000852	-14.400000	-0.152000
0.000853	-14.400000	-0.152000
0.000854	-14.400000	-0.152000
0.000855	-14.400000	-0.152000
0.000856	-14.400000	-0.144000
0.000857	-14.000000	-0.152000
0.000858	-14.000000	-0.152000
0.000859	-14.000000	-0.144000
0.000860	-14.000000	-0.144000
0.000861	-14.000000	-0.144000
0.000862	-13.600000	-0.144000
0.000863	-13.600000	-0.144000
0.000864	-13.200000	-0.144000
0.000865	-13.200000	-0.144000
0.000866	-13.200000	-0.144000
0.000867	-13.200000	-0.136000
0.000868	-12.800000	-0.136000
0.000869	-12.400000	-0.136000
0.000870	-12.800000	-0.136000
0.000871	-12.400000	-0.128000
0.000872	-12.400000	-0.128000
0.000873	-12.400000	-0.128000
0.000874	-12.400000	-0.128000
0.000875	-12.000000	-0.128000
0.000876	-12.000000	-0.128000
0.000877	-12.000000	-0.128000
0.000878	-12.000000	-0.128000
0.000879	-11.600000	-0.120000
0.000880	-11.600000	-0.128000
0.000881	-11.200000	-0.120000
0.000882	-11.200000	-0.120000
0.000883	-11.200000	-0.120000
0.000884	-11.200000	-0.120000
0.000885	-11.200000	-0.120000
0.000886	-10.800000	-0.120000
0.000887	-10.800000	-0.120000
0.000888	-10.400000	-0.120000
0.000889	-10.400000	-0.120000
0.000890	-10.400000	-0.120000
0.000891	-10.400000	-0.112000
0.000892	-10.000000	-0.112000
0.000893	-10.000000	-0.112000
0.000894	-10.000000	-0.112000
0.000895	-9.600000	-0.104000
0.000896	-9.600000	-0.112000
0.000897	-9.600000	-0.104000
0.000898	-9.600000	-0.104000
0.000899	-9.600000	-0.104000
0.000900	-9.200000	-0.104000
0.000901	-9.200000	-0.104000
0.000902	-8.800000	-0.096000
0.000903	-8.800000	-0.096000
0.000904	-8.800000	-0.096000
0.000905	-8.400000	-0.096000
0.000906	-8.400000	-0.096000
0.000907	-8.400000	-0.096000
0.000908	-8.000000	-0.088000
0.000909	-8.000000	-0.088000
0.000910	-8.000000	-0.088000
0.000911	-7.600000	-0.088000
0.000912	-7.600000	-0.088000
0.000913	-7.600000	-0.088000
0.000914	-7.600000	-0.088000
0.000915	-7.200000	-0.088000
0.000916	-7.200000	-0.080000
0.000917	-6.800000	-0.080000
0.000918	-6.800000	-0.080000
0.000919	-6.800000	-0.080000
0.000920	-6.800000	-0.080000
0.000921	-6.400000	-0.080000
0.000922	-6.800000	-0.080000
0.000923	-6.400000	-0.072000
0.000924	-6.400000	-0.072000
0.000925	-6.400000	-0.072000
0.000926	-6.000000	-0.072000
0.000927	-6.000000	-0.072000
0.000928	-6.000000	-0.072000
0.000929	-6.000000	-0.064000
0.000930	-5.600000	-0.064000
0.000931	-5.600000	-0.072000
0.000932	-5.600000	-0.064000
0.000933	-5.200000	-0.064000
0.000934	-5.600000	-0.064000
0.000935	-5.200000	-0.064000
0.000936	-5.200000	-0.064000
0.000937	-4.800000	-0.056000
0.000938	-4.800000	-0.056000
0.000939	-4.400000	-0.056000
0.000940	-4.400000	-0.064000
0.000941	-4.400000	-0.056000
0.000942	-4.400000	-0.056000
0.000943	-4.000000	-0.056000
0.000944	-4.000000	-0.048000
0.000945	-4.000000	-0.048000
0.000946	-4.000000	-0.048000
0.000947	-3.600000	-0.048000
0.000948	-3.600000	-0.048000
0.000949	-3.200000	-0.040000
0.000950	-3.200000	-0.048000
0.000951	-3.200000	-0.040000
0.000952	-2.800000	-0.040000
0.000953	-2.800000	-0.032000
0.000954	-2.400000	-0.040000
0.000955	-2.400000	-0.040000
0.000956	-2.400000	-0.040000
0.000957	-2.400000	-0.040000
0.000958	-2.400000	-0.032000
0.000959	-2.000000	-0.032000
0.000960	-2.000000	-0.032000
0.000961	-1.600000	-0.032000
0.000962	-1.600000	-0.032000
0.000963	-1.600000	-0.032000
0.000964	-1.600000	-0.032000
0.000965	-1.600000	-0.024000
0.000966	-1.200000	-0.024000
0.000967	-1.200000	-0.024000
0.000968	-1.200000	-0.016000
0.000969	-0.800000	-0.024000
0.000970	-0.800000	-0.016000
0.000971	-0.400000	-0.016000
0.000972	-0.400000	-0.016000
0.000973	-0.400000	-0.016000
0.000974	-0.400000	-0.016000
0.000975	0.000000	-0.016000
0.000976	0.000000	-0.008000
0.000977	0.000000	-0.016000
0.000978	0.000000	-0.008000
0.000979	0.000000	-0.008000
0.000980	0.400000	-0.008000
0.000981	0.400000	-0.008000
0.000982	0.400000	-0.008000
0.000983	0.400000	0.000000
0.000984	0.800000	-0.016000
0.000985	0.800000	0.000000
0.000986	1.200000	0.000000
0.000987	1.200000	0.000000
0.000988	1.200000	0.000000
0.000989	1.200000	0.008000
0.000990	1.600000	0.000000
0.000991	1.600000	0.000000
0.000992	1.600000	0.008000
0.000993	1.600000	0.008000
0.000994	1.600000	0.008000
0.000995	2.000000	0.008000
0.000996	2.000000	0.008000
0.000997	2.000000	0.008000
0.000998	2.400000	0.008000
0.000999	2.800000	0.008000
0.001000	2.400000	0.016000
0.001001	2.800000	0.016000
0.001002	3.200000	0.008000
0.001003	2.800000	0.016000
0.001004	3.200000	0.016000
0.001005	3.200000	0.024000
0.001006	3.200000	0.016000
0.001007	3.600000	0.024000
0.001008	3.600000	0.016000
0.001009	3.600000	0.024000
0.001010	4.000000	0.024000
0.001011	3.600000	0.024000
0.001012	4.000000	0.024000
0.001013	4.000000	0.024000
0.001014	4.400000	0.032000
0.001015	4.400000	0.032000
0.001016	4.400000	0.032000
0.001017	4.800000	0.032000
0.001018	4.800000	0.032000
0.001019	4.800000	0.032000
0.001020	5.200000	0.032000
0.001021	4.800000	0.032000
0.001022	5.200000	0.040000
0.001023	5.200000	0.040000
0.001024	5.200000	0.040000
0.001025	5.600000	0.040000
0.001026	5.600000	0.040000
0.001027	5.600000	0.040000
0.001028	6.000000	0.040000
0.001029	6.000000	0.040000
0.001030	6.000000	0.048000
0.001031	6.400000	0.048000
0.001032	6.400000	0.040000
0.001033	6.400000	0.048000
0.001034	6.400000	0.056000
0.001035	6.800000	0.056000
0.001036	6.800000	0.048000
0.001037	7.200000	0.056000
0.001038	7.200000	0.056000
0.001039	6.800000	0.056000
0.001040	7.200000	0.056000
0.001041	7.600000	0.056000
0.001042	7.600000	0.064000
0.001043	8.000000	0.064000
0.001044	8.000000	0.064000
0.001045	8.000000	0.064000
0.001046	8.000000	0.064000
0.001047	8.000000	0.072000
0.001048	8.000000	0.072000
0.001049	8.400000	0.072000
0.001050	8.400000	0.072000
0.001051	8.400000	0.072000
0.001052	8.800000	0.072000
0.001053	8.800000	0.072000
0.001054	9.200000	0.072000
0.001055	9.200000	0.080000
0.001056	9.200000	0.080000
0.001057	9.200000	0.080000
0.001058	9.600000	0.080000
0.001059	9.600000	0.080000
0.001060	9.600000	0.080000
0.001061	9.600000	0.080000
0.001062	10.000000	0.072000
0.001063	10.000000	0.088000
0.001064	10.000000	0.088000
0.001065	10.400000	0.088000
0.001066	10.400000	0.088000
0.001067	10.400000	0.088000
0.001068	10.400000	0.088000
0.001069	10.800000	0.096000
0.001070	10.800000	0.096000
0.001071	10.800000	0.096000
0.001072	11.200000	0.096000
0.001073	11.200000	0.096000
0.001074	11.200000	0.104000
0.001075	11.200000	0.096000
0.001076	11.600000	0.096000
0.001077	11.600000	0.104000
0.001078	11.600000	0.104000
0.001079	12.000000	0.104000
0.001080	12.000000	0.104000
0.001081	12.000000	0.104000
0.001082	12.000000	0.112000
0.001083	12.400000	0.104000
0.001084	12.400000	0.112000
0.001085	12.800000	0.112000
0.001086	12.800000	0.112000
0.001087	12.800000	0.112000
0.001088	12.800000	0.112000
0.001089	13.200000	0.120000
0.001090	13.200000	0.112000
0.001091	13.200000	0.120000
0.001092	13.600000	0.120000
0.001093	13.600000	0.128000
0.001094	13.600000	0.120000
0.001095	13.600000	0.120000
0.001096	13.600000	0.120000
0.001097	14.000000	0.120000
0.001098	14.000000	0.120000
0.001099	14.000000	0.128000
0.001100	14.400000	0.128000
0.001101	14.400000	0.128000
0.001102	14.400000	0.128000
0.001103	14.800000	0.128000
0.001104	14.400000	0.136000
0.001105	14.800000	0.136000
0.001106	15.200000	0.136000
0.001107	15.200000	0.136000
0.001108	15.200000	0.136000
0.001109	15.200000	0.144000
0.001110	15.600000	0.144000
0.001111	15.600000	0.136000
0.001112	16.000000	0.144000
0.001113	16.000000	0.144000
0.001114	16.000000	0.144000
0.001115	16.000000	0.144000
0.001116	16.000000	0.144000
0.001117	16.400000	0.144000
0.001118	16.400000	0.152000
0.001119	16.400000	0.152000
0.001120	16.800000	0.152000
0.001121	16.400000	0.152000
0.001122	16.800000	0.152000
0.001123	17.200000	0.152000
0.001124	17.200000	0.152000
0.001125	17.200000	0.160000
0.001126	17.600000	0.160000
0.001127	17.600000	0.160000
0.001128	17.600000	0.160000
0.001129	17.600000	0.160000
0.001130	17.600000	0.160000
0.001131	18.000000	0.160000
0.001132	18.000000	0.168000
0.001133	18.000000	0.168000
0.001134	18.400000	0.168000
0.001135	18.400000	0.168000
0.001136	18.400000	0.176000
0.001137	18.800000	0.176000
0.001138	18.800000	0.176000
0.001139	18.800000	0.176000
0.001140	18.800000	0.168000
0.001141	19.200000	0.176000
0.001142	19.200000	0.176000
0.001143	19.200000	0.176000
0.001144	19.600000	0.184000
0.001145	19.600000	0.176000
0.001146	19.600000	0.184000
0.001147	19.600000	0.184000
0.001148	20.000000	0.184000
0.001149	20.000000	0.192000
0.001150	20.000000	0.192000
0.001151	20.400000	0.192000
0.001152	20.400000	0.184000
0.001153	20.400000	0.192000
0.001154	20.400000	0.192000
0.001155	20.800000	0.192000
0.001156	20.800000	0.192000
0.001157	20.800000	0.192000
0.001158	20.800000	0.200000
0.001159	21.200000	0.192000
0.001160	21.200000	0.200000
0.001161	21.600000	0.200000
0.001162	21.600000	0.200000
0.001163	21.600000	0.200000
0.001164	21.600000	0.200000
0.001165	22.000000	0.200000
0.001166	22.000000	0.200000
0.001167	22.000000	0.208000
0.001168	22.000000	0.200000
0.001169	22.400000	0.200000
0.001170	22.400000	0.208000
0.001171	22.800000	0.208000
0.001172	22.800000	0.208000
0.001173	22.800000	0.216000
0.001174	22.800000	0.208000
0.001175	23.200000	0.208000
0.001176	23.200000	0.216000
0.001177	23.200000	0.216000
0.001178	23.200000	0.224000
0.001179	23.600000	0.216000
0.001180	23.600000	0.216000
0.001181	23.600000	0.224000
0.001182	24.000000	0.224000
0.001183	24.000000	0.224000
0.001184	24.000000	0.224000
0.001185	24.400000	0.232000
0.001186	24.000000	0.232000
0.001187	24.400000	0.232000
0.001188	24.400000	0.232000
0.001189	24.800000	0.232000
0.001190	24.800000	0.232000
0.001191	24.800000	0.240000
0.001192	24.800000	0.232000
0.001193	25.200000	0.240000
0.001194	25.200000	0.240000
0.001195	25.600000	0.240000
0.001196	25.200000	0.240000
0.001197	25.600000	0.240000
0.001198	25.600000	0.240000
0.001199	25.600000	0.248000
0.001200	25.600000	0.248000
0.001201	26.000000	0.248000
0.001202	26.000000	0.248000
0.001203	26.000000	0.248000
0.001204	26.400000	0.256000
0.001205	26.400000	0.248000
0.001206	26.400000	0.256000
0.001207	26.400000	0.256000
0.001208	26.800000	0.256000
0.001209	26.800000	0.256000
0.001210	27.200000	0.256000
0.001211	27.200000	0.256000
0.001212	27.200000	0.264000
0.001213	27.600000	0.264000
0.001214	27.200000	0.264000
0.001215	27.600000	0.264000
0.001216	28.000000	0.264000
0.001217	28.000000	0.264000
0.001218	28.000000	0.272000
0.001219	28.000000	0.264000
0.001220	28.400000	0.272000
0.001221	28.400000	0.272000
0.001222	28.400000	0.272000
0.001223	28.400000	0.272000
0.001224	28.800000	0.272000
0.001225	28.400000	0.272000
0.001226	28.800000	0.280000
0.001227	28.800000	0.280000
0.001228	28.800000	0.280000
0.001229	29.200000	0.280000
0.001230	28.800000	0.280000
0.001231	28.800000	0.272000
0.001232	28.800000	0.280000
0.001233	28.400000	0.272000
0.001234	28.800000	0.272000
0.001235	28.400000	0.272000
0.001236	28.400000	0.272000
0.001237	28.000000	0.272000
0.001238	28.400000	0.272000
0.001239	28.000000	0.272000
0.001240	28.000000	0.272000
0.001241	27.600000	0.264000
0.001242	27.600000	0.264000
0.001243	27.600000	0.264000
0.001244	27.600000	0.264000
0.001245	27.200000	0.264000
0.001246	26.800000	0.264000
0.001247	27.200000	0.264000
0.001248	26.800000	0.264000
0.001249	26.800000	0.256000

