LabVIEW Measurement	
Writer_Version	2
Reader_Version	2
Separator	Tab
Decimal_Separator	.
Multi_Headings	Yes
X_Columns	One
Time_Pref	Relative
Operator	e014
Description	Hysteresis Loop Data
Date	2015/07/23
Time	17:05:02.7109208106994628906
***End_of_Header***	
	
Channels	2		
Samples	2500	2500	
Date	2015/07/23	2015/07/23	
Time	17:05:02.7109208106994628906	17:05:02.7109208106994628906	
X_Dimension	Time	Time	
X0	-2.5000000000000001E-3	-2.5000000000000001E-3	
Delta_X	2.000000E-6	2.000000E-6	
***End_of_Header***			
X_Value	Untitled	Untitled 1	Comment
-0.002500	-2.800000	-0.032000
-0.002498	-2.800000	-0.040000
-0.002496	-3.200000	-0.040000
-0.002494	-3.600000	-0.048000
-0.002492	-4.000000	-0.048000
-0.002490	-4.000000	-0.056000
-0.002488	-4.400000	-0.056000
-0.002486	-4.400000	-0.056000
-0.002484	-4.800000	-0.064000
-0.002482	-4.800000	-0.064000
-0.002480	-5.200000	-0.064000
-0.002478	-5.600000	-0.072000
-0.002476	-5.600000	-0.072000
-0.002474	-6.000000	-0.080000
-0.002472	-6.000000	-0.080000
-0.002470	-6.400000	-0.080000
-0.002468	-6.400000	-0.088000
-0.002466	-6.800000	-0.088000
-0.002464	-7.200000	-0.088000
-0.002462	-7.200000	-0.096000
-0.002460	-7.600000	-0.096000
-0.002458	-7.600000	-0.104000
-0.002456	-8.000000	-0.104000
-0.002454	-8.000000	-0.112000
-0.002452	-8.400000	-0.112000
-0.002450	-8.800000	-0.120000
-0.002448	-8.800000	-0.120000
-0.002446	-9.200000	-0.120000
-0.002444	-9.600000	-0.120000
-0.002442	-9.600000	-0.128000
-0.002440	-10.000000	-0.128000
-0.002438	-10.000000	-0.136000
-0.002436	-10.400000	-0.136000
-0.002434	-10.400000	-0.136000
-0.002432	-10.800000	-0.144000
-0.002430	-11.200000	-0.144000
-0.002428	-11.200000	-0.144000
-0.002426	-11.600000	-0.152000
-0.002424	-11.600000	-0.152000
-0.002422	-12.000000	-0.160000
-0.002420	-12.000000	-0.160000
-0.002418	-12.400000	-0.160000
-0.002416	-12.800000	-0.168000
-0.002414	-12.800000	-0.168000
-0.002412	-13.200000	-0.168000
-0.002410	-13.200000	-0.176000
-0.002408	-13.600000	-0.176000
-0.002406	-14.000000	-0.184000
-0.002404	-14.000000	-0.184000
-0.002402	-14.400000	-0.184000
-0.002400	-14.400000	-0.192000
-0.002398	-14.800000	-0.192000
-0.002396	-14.800000	-0.200000
-0.002394	-15.200000	-0.200000
-0.002392	-15.200000	-0.208000
-0.002390	-15.600000	-0.208000
-0.002388	-16.000000	-0.208000
-0.002386	-16.000000	-0.216000
-0.002384	-16.400000	-0.216000
-0.002382	-16.800000	-0.216000
-0.002380	-16.800000	-0.224000
-0.002378	-17.200000	-0.224000
-0.002376	-17.200000	-0.232000
-0.002374	-17.600000	-0.232000
-0.002372	-17.600000	-0.232000
-0.002370	-18.000000	-0.240000
-0.002368	-18.400000	-0.240000
-0.002366	-18.400000	-0.240000
-0.002364	-18.800000	-0.248000
-0.002362	-18.800000	-0.248000
-0.002360	-19.200000	-0.248000
-0.002358	-19.200000	-0.256000
-0.002356	-19.600000	-0.256000
-0.002354	-20.000000	-0.264000
-0.002352	-20.000000	-0.264000
-0.002350	-20.400000	-0.264000
-0.002348	-20.400000	-0.272000
-0.002346	-20.800000	-0.280000
-0.002344	-20.800000	-0.280000
-0.002342	-21.200000	-0.280000
-0.002340	-21.600000	-0.280000
-0.002338	-21.600000	-0.288000
-0.002336	-22.000000	-0.288000
-0.002334	-22.400000	-0.296000
-0.002332	-22.400000	-0.296000
-0.002330	-22.800000	-0.296000
-0.002328	-22.800000	-0.304000
-0.002326	-23.200000	-0.304000
-0.002324	-23.200000	-0.312000
-0.002322	-23.600000	-0.312000
-0.002320	-24.000000	-0.312000
-0.002318	-24.000000	-0.320000
-0.002316	-24.400000	-0.320000
-0.002314	-24.400000	-0.320000
-0.002312	-24.800000	-0.328000
-0.002310	-24.800000	-0.328000
-0.002308	-25.200000	-0.336000
-0.002306	-25.600000	-0.336000
-0.002304	-25.600000	-0.336000
-0.002302	-26.000000	-0.344000
-0.002300	-26.000000	-0.344000
-0.002298	-26.400000	-0.344000
-0.002296	-26.400000	-0.352000
-0.002294	-26.800000	-0.352000
-0.002292	-26.800000	-0.360000
-0.002290	-27.200000	-0.360000
-0.002288	-27.600000	-0.360000
-0.002286	-27.600000	-0.368000
-0.002284	-28.000000	-0.368000
-0.002282	-28.400000	-0.376000
-0.002280	-28.400000	-0.376000
-0.002278	-28.800000	-0.376000
-0.002276	-28.800000	-0.384000
-0.002274	-29.200000	-0.384000
-0.002272	-29.200000	-0.384000
-0.002270	-29.200000	-0.384000
-0.002268	-28.800000	-0.376000
-0.002266	-28.400000	-0.376000
-0.002264	-28.400000	-0.376000
-0.002262	-28.000000	-0.368000
-0.002260	-28.000000	-0.368000
-0.002258	-27.600000	-0.368000
-0.002256	-27.200000	-0.360000
-0.002254	-27.200000	-0.360000
-0.002252	-26.800000	-0.352000
-0.002250	-26.800000	-0.352000
-0.002248	-26.400000	-0.344000
-0.002246	-26.000000	-0.344000
-0.002244	-26.000000	-0.344000
-0.002242	-25.600000	-0.336000
-0.002240	-25.600000	-0.336000
-0.002238	-25.200000	-0.336000
-0.002236	-24.800000	-0.328000
-0.002234	-24.800000	-0.328000
-0.002232	-24.400000	-0.320000
-0.002230	-24.400000	-0.320000
-0.002228	-24.000000	-0.320000
-0.002226	-23.600000	-0.312000
-0.002224	-23.600000	-0.312000
-0.002222	-23.200000	-0.312000
-0.002220	-23.200000	-0.304000
-0.002218	-22.800000	-0.304000
-0.002216	-22.800000	-0.296000
-0.002214	-22.400000	-0.296000
-0.002212	-22.400000	-0.288000
-0.002210	-22.000000	-0.288000
-0.002208	-21.600000	-0.288000
-0.002206	-21.200000	-0.280000
-0.002204	-21.200000	-0.280000
-0.002202	-20.800000	-0.280000
-0.002200	-20.800000	-0.272000
-0.002198	-20.400000	-0.272000
-0.002196	-20.000000	-0.264000
-0.002194	-20.000000	-0.264000
-0.002192	-19.600000	-0.264000
-0.002190	-19.600000	-0.256000
-0.002188	-19.200000	-0.256000
-0.002186	-19.200000	-0.248000
-0.002184	-18.800000	-0.248000
-0.002182	-18.400000	-0.248000
-0.002180	-18.400000	-0.240000
-0.002178	-18.000000	-0.240000
-0.002176	-18.000000	-0.240000
-0.002174	-17.600000	-0.232000
-0.002172	-17.600000	-0.232000
-0.002170	-17.200000	-0.224000
-0.002168	-16.800000	-0.224000
-0.002166	-16.800000	-0.224000
-0.002164	-16.400000	-0.216000
-0.002162	-16.400000	-0.216000
-0.002160	-16.000000	-0.216000
-0.002158	-15.600000	-0.208000
-0.002156	-15.600000	-0.208000
-0.002154	-15.200000	-0.200000
-0.002152	-14.800000	-0.200000
-0.002150	-14.800000	-0.200000
-0.002148	-14.400000	-0.200000
-0.002146	-14.400000	-0.192000
-0.002144	-14.000000	-0.184000
-0.002142	-14.000000	-0.184000
-0.002140	-13.600000	-0.184000
-0.002138	-13.600000	-0.176000
-0.002136	-13.200000	-0.176000
-0.002134	-12.800000	-0.168000
-0.002132	-12.800000	-0.168000
-0.002130	-12.400000	-0.168000
-0.002128	-12.400000	-0.160000
-0.002126	-12.000000	-0.160000
-0.002124	-12.000000	-0.160000
-0.002122	-11.600000	-0.152000
-0.002120	-11.200000	-0.152000
-0.002118	-11.200000	-0.144000
-0.002116	-10.800000	-0.144000
-0.002114	-10.800000	-0.144000
-0.002112	-10.400000	-0.136000
-0.002110	-10.400000	-0.136000
-0.002108	-10.000000	-0.128000
-0.002106	-9.600000	-0.128000
-0.002104	-9.600000	-0.128000
-0.002102	-9.200000	-0.120000
-0.002100	-8.800000	-0.120000
-0.002098	-8.800000	-0.120000
-0.002096	-8.400000	-0.112000
-0.002094	-8.400000	-0.112000
-0.002092	-8.000000	-0.112000
-0.002090	-7.600000	-0.104000
-0.002088	-7.600000	-0.104000
-0.002086	-7.200000	-0.096000
-0.002084	-7.200000	-0.096000
-0.002082	-6.800000	-0.088000
-0.002080	-6.800000	-0.088000
-0.002078	-6.400000	-0.088000
-0.002076	-6.400000	-0.080000
-0.002074	-6.000000	-0.080000
-0.002072	-5.600000	-0.072000
-0.002070	-5.600000	-0.072000
-0.002068	-5.200000	-0.072000
-0.002066	-5.200000	-0.064000
-0.002064	-4.800000	-0.064000
-0.002062	-4.400000	-0.064000
-0.002060	-4.400000	-0.056000
-0.002058	-4.000000	-0.056000
-0.002056	-4.000000	-0.048000
-0.002054	-3.600000	-0.048000
-0.002052	-3.600000	-0.040000
-0.002050	-3.200000	-0.040000
-0.002048	-2.800000	-0.040000
-0.002046	-2.400000	-0.032000
-0.002044	-2.400000	-0.032000
-0.002042	-2.000000	-0.032000
-0.002040	-2.000000	-0.024000
-0.002038	-1.600000	-0.016000
-0.002036	-1.200000	-0.016000
-0.002034	-1.200000	-0.016000
-0.002032	-0.800000	-0.008000
-0.002030	-0.800000	-0.008000
-0.002028	-0.400000	-0.008000
-0.002026	0.000000	0.000000
-0.002024	0.000000	0.000000
-0.002022	0.400000	0.000000
-0.002020	0.400000	0.008000
-0.002018	0.800000	0.008000
-0.002016	0.800000	0.016000
-0.002014	1.200000	0.016000
-0.002012	1.200000	0.016000
-0.002010	1.600000	0.024000
-0.002008	1.600000	0.024000
-0.002006	2.000000	0.032000
-0.002004	2.000000	0.032000
-0.002002	2.400000	0.032000
-0.002000	2.800000	0.040000
-0.001998	3.200000	0.040000
-0.001996	3.200000	0.040000
-0.001994	3.600000	0.048000
-0.001992	3.600000	0.048000
-0.001990	4.000000	0.048000
-0.001988	4.000000	0.056000
-0.001986	4.400000	0.056000
-0.001984	4.800000	0.064000
-0.001982	4.800000	0.064000
-0.001980	5.200000	0.072000
-0.001978	5.200000	0.072000
-0.001976	5.600000	0.072000
-0.001974	5.600000	0.080000
-0.001972	6.000000	0.080000
-0.001970	6.000000	0.080000
-0.001968	6.400000	0.088000
-0.001966	6.800000	0.088000
-0.001964	6.800000	0.096000
-0.001962	7.200000	0.096000
-0.001960	7.600000	0.096000
-0.001958	7.600000	0.104000
-0.001956	8.000000	0.104000
-0.001954	8.000000	0.104000
-0.001952	8.400000	0.112000
-0.001950	8.800000	0.112000
-0.001948	8.800000	0.120000
-0.001946	9.200000	0.120000
-0.001944	9.200000	0.120000
-0.001942	9.600000	0.128000
-0.001940	9.600000	0.128000
-0.001938	10.000000	0.128000
-0.001936	10.400000	0.136000
-0.001934	10.400000	0.136000
-0.001932	10.800000	0.144000
-0.001930	10.800000	0.144000
-0.001928	11.200000	0.152000
-0.001926	11.200000	0.152000
-0.001924	11.600000	0.152000
-0.001922	12.000000	0.160000
-0.001920	12.000000	0.160000
-0.001918	12.400000	0.168000
-0.001916	12.800000	0.168000
-0.001914	12.800000	0.168000
-0.001912	13.200000	0.176000
-0.001910	13.200000	0.176000
-0.001908	13.600000	0.176000
-0.001906	13.600000	0.184000
-0.001904	14.000000	0.184000
-0.001902	14.000000	0.192000
-0.001900	14.400000	0.192000
-0.001898	14.400000	0.192000
-0.001896	14.800000	0.200000
-0.001894	15.200000	0.200000
-0.001892	15.200000	0.200000
-0.001890	15.600000	0.208000
-0.001888	16.000000	0.208000
-0.001886	16.000000	0.208000
-0.001884	16.400000	0.216000
-0.001882	16.400000	0.216000
-0.001880	16.800000	0.216000
-0.001878	17.200000	0.224000
-0.001876	17.200000	0.232000
-0.001874	17.600000	0.232000
-0.001872	17.600000	0.232000
-0.001870	18.000000	0.240000
-0.001868	18.000000	0.240000
-0.001866	18.400000	0.248000
-0.001864	18.400000	0.248000
-0.001862	18.800000	0.248000
-0.001860	18.800000	0.256000
-0.001858	19.200000	0.256000
-0.001856	19.600000	0.256000
-0.001854	19.600000	0.264000
-0.001852	20.000000	0.264000
-0.001850	20.000000	0.272000
-0.001848	20.400000	0.272000
-0.001846	20.800000	0.272000
-0.001844	20.800000	0.280000
-0.001842	21.200000	0.280000
-0.001840	21.600000	0.280000
-0.001838	21.600000	0.288000
-0.001836	22.000000	0.288000
-0.001834	22.000000	0.288000
-0.001832	22.400000	0.296000
-0.001830	22.400000	0.296000
-0.001828	22.800000	0.296000
-0.001826	23.200000	0.304000
-0.001824	23.200000	0.312000
-0.001822	23.600000	0.312000
-0.001820	23.600000	0.312000
-0.001818	24.000000	0.320000
-0.001816	24.000000	0.320000
-0.001814	24.400000	0.320000
-0.001812	24.800000	0.328000
-0.001810	24.800000	0.328000
-0.001808	25.200000	0.336000
-0.001806	25.200000	0.336000
-0.001804	25.600000	0.336000
-0.001802	25.600000	0.344000
-0.001800	26.000000	0.344000
-0.001798	26.000000	0.352000
-0.001796	26.400000	0.352000
-0.001794	26.400000	0.352000
-0.001792	26.800000	0.360000
-0.001790	27.200000	0.360000
-0.001788	27.600000	0.360000
-0.001786	27.600000	0.368000
-0.001784	28.000000	0.368000
-0.001782	28.000000	0.368000
-0.001780	28.400000	0.376000
-0.001778	28.400000	0.376000
-0.001776	28.800000	0.376000
-0.001774	28.800000	0.384000
-0.001772	28.800000	0.384000
-0.001770	28.800000	0.376000
-0.001768	28.800000	0.376000
-0.001766	28.400000	0.376000
-0.001764	28.000000	0.368000
-0.001762	28.000000	0.368000
-0.001760	27.600000	0.368000
-0.001758	27.600000	0.360000
-0.001756	27.200000	0.360000
-0.001754	26.800000	0.360000
-0.001752	26.400000	0.352000
-0.001750	26.400000	0.352000
-0.001748	26.000000	0.344000
-0.001746	26.000000	0.344000
-0.001744	25.600000	0.344000
-0.001742	25.600000	0.336000
-0.001740	25.200000	0.336000
-0.001738	25.200000	0.336000
-0.001736	24.800000	0.328000
-0.001734	24.400000	0.328000
-0.001732	24.400000	0.320000
-0.001730	24.000000	0.320000
-0.001728	24.000000	0.320000
-0.001726	23.600000	0.312000
-0.001724	23.600000	0.312000
-0.001722	23.200000	0.312000
-0.001720	22.800000	0.304000
-0.001718	22.800000	0.296000
-0.001716	22.400000	0.296000
-0.001714	22.400000	0.296000
-0.001712	22.000000	0.288000
-0.001710	22.000000	0.288000
-0.001708	21.600000	0.288000
-0.001706	21.200000	0.280000
-0.001704	21.200000	0.280000
-0.001702	20.800000	0.280000
-0.001700	20.400000	0.272000
-0.001698	20.400000	0.272000
-0.001696	20.000000	0.264000
-0.001694	20.000000	0.264000
-0.001692	19.600000	0.264000
-0.001690	19.200000	0.256000
-0.001688	19.200000	0.256000
-0.001686	18.800000	0.256000
-0.001684	18.800000	0.248000
-0.001682	18.400000	0.248000
-0.001680	18.400000	0.248000
-0.001678	18.000000	0.240000
-0.001676	17.600000	0.240000
-0.001674	17.600000	0.232000
-0.001672	17.200000	0.232000
-0.001670	17.200000	0.232000
-0.001668	16.800000	0.224000
-0.001666	16.800000	0.216000
-0.001664	16.400000	0.216000
-0.001662	16.400000	0.216000
-0.001660	16.000000	0.208000
-0.001658	16.000000	0.208000
-0.001656	15.600000	0.200000
-0.001654	15.200000	0.200000
-0.001652	15.200000	0.200000
-0.001650	14.800000	0.200000
-0.001648	14.400000	0.192000
-0.001646	14.000000	0.192000
-0.001644	14.000000	0.184000
-0.001642	13.600000	0.184000
-0.001640	13.600000	0.184000
-0.001638	13.200000	0.176000
-0.001636	13.200000	0.176000
-0.001634	12.800000	0.176000
-0.001632	12.800000	0.168000
-0.001630	12.400000	0.168000
-0.001628	12.000000	0.160000
-0.001626	12.000000	0.160000
-0.001624	11.600000	0.160000
-0.001622	11.600000	0.152000
-0.001620	11.200000	0.152000
-0.001618	11.200000	0.144000
-0.001616	10.800000	0.144000
-0.001614	10.400000	0.144000
-0.001612	10.400000	0.136000
-0.001610	10.000000	0.136000
-0.001608	10.000000	0.128000
-0.001606	9.600000	0.128000
-0.001604	9.200000	0.120000
-0.001602	9.200000	0.120000
-0.001600	9.200000	0.120000
-0.001598	8.800000	0.112000
-0.001596	8.400000	0.112000
-0.001594	8.400000	0.112000
-0.001592	8.000000	0.104000
-0.001590	7.600000	0.104000
-0.001588	7.600000	0.104000
-0.001586	7.200000	0.096000
-0.001584	7.200000	0.096000
-0.001582	6.800000	0.088000
-0.001580	6.400000	0.088000
-0.001578	6.400000	0.088000
-0.001576	6.000000	0.080000
-0.001574	5.600000	0.080000
-0.001572	5.600000	0.080000
-0.001570	5.600000	0.072000
-0.001568	5.200000	0.072000
-0.001566	5.200000	0.064000
-0.001564	4.800000	0.064000
-0.001562	4.400000	0.064000
-0.001560	4.400000	0.056000
-0.001558	4.000000	0.056000
-0.001556	4.000000	0.048000
-0.001554	3.600000	0.048000
-0.001552	3.200000	0.040000
-0.001550	3.200000	0.040000
-0.001548	2.800000	0.040000
-0.001546	2.400000	0.040000
-0.001544	2.400000	0.032000
-0.001542	2.000000	0.032000
-0.001540	2.000000	0.024000
-0.001538	1.600000	0.024000
-0.001536	1.200000	0.024000
-0.001534	1.200000	0.016000
-0.001532	1.200000	0.016000
-0.001530	0.800000	0.008000
-0.001528	0.400000	0.008000
-0.001526	0.400000	0.008000
-0.001524	0.000000	0.000000
-0.001522	0.000000	0.000000
-0.001520	-0.400000	0.000000
-0.001518	-0.800000	-0.008000
-0.001516	-0.800000	-0.008000
-0.001514	-1.200000	-0.016000
-0.001512	-1.200000	-0.016000
-0.001510	-1.600000	-0.016000
-0.001508	-1.600000	-0.024000
-0.001506	-2.000000	-0.024000
-0.001504	-2.400000	-0.032000
-0.001502	-2.400000	-0.032000
-0.001500	-2.800000	-0.032000
-0.001498	-2.800000	-0.040000
-0.001496	-3.200000	-0.040000
-0.001494	-3.600000	-0.048000
-0.001492	-4.000000	-0.048000
-0.001490	-4.000000	-0.056000
-0.001488	-4.400000	-0.056000
-0.001486	-4.400000	-0.056000
-0.001484	-4.800000	-0.064000
-0.001482	-4.800000	-0.064000
-0.001480	-5.200000	-0.064000
-0.001478	-5.600000	-0.072000
-0.001476	-5.600000	-0.072000
-0.001474	-6.000000	-0.080000
-0.001472	-6.000000	-0.080000
-0.001470	-6.400000	-0.080000
-0.001468	-6.400000	-0.088000
-0.001466	-6.800000	-0.088000
-0.001464	-6.800000	-0.096000
-0.001462	-7.200000	-0.096000
-0.001460	-7.600000	-0.096000
-0.001458	-7.600000	-0.104000
-0.001456	-8.000000	-0.112000
-0.001454	-8.000000	-0.112000
-0.001452	-8.400000	-0.112000
-0.001450	-8.800000	-0.120000
-0.001448	-8.800000	-0.120000
-0.001446	-9.200000	-0.120000
-0.001444	-9.600000	-0.128000
-0.001442	-9.600000	-0.128000
-0.001440	-10.000000	-0.128000
-0.001438	-10.000000	-0.136000
-0.001436	-10.400000	-0.136000
-0.001434	-10.400000	-0.136000
-0.001432	-10.800000	-0.144000
-0.001430	-11.200000	-0.144000
-0.001428	-11.200000	-0.144000
-0.001426	-11.600000	-0.152000
-0.001424	-11.600000	-0.152000
-0.001422	-12.000000	-0.160000
-0.001420	-12.400000	-0.160000
-0.001418	-12.400000	-0.160000
-0.001416	-12.800000	-0.168000
-0.001414	-12.800000	-0.168000
-0.001412	-13.200000	-0.176000
-0.001410	-13.200000	-0.176000
-0.001408	-13.600000	-0.176000
-0.001406	-14.000000	-0.184000
-0.001404	-14.000000	-0.184000
-0.001402	-14.400000	-0.184000
-0.001400	-14.400000	-0.192000
-0.001398	-14.800000	-0.192000
-0.001396	-14.800000	-0.200000
-0.001394	-15.200000	-0.200000
-0.001392	-15.200000	-0.208000
-0.001390	-15.600000	-0.208000
-0.001388	-16.000000	-0.208000
-0.001386	-16.000000	-0.216000
-0.001384	-16.400000	-0.216000
-0.001382	-16.800000	-0.216000
-0.001380	-16.800000	-0.224000
-0.001378	-17.200000	-0.224000
-0.001376	-17.200000	-0.232000
-0.001374	-17.600000	-0.232000
-0.001372	-18.000000	-0.232000
-0.001370	-18.000000	-0.240000
-0.001368	-18.400000	-0.240000
-0.001366	-18.400000	-0.240000
-0.001364	-18.800000	-0.248000
-0.001362	-18.800000	-0.248000
-0.001360	-19.200000	-0.256000
-0.001358	-19.200000	-0.256000
-0.001356	-19.600000	-0.256000
-0.001354	-20.000000	-0.264000
-0.001352	-20.000000	-0.264000
-0.001350	-20.400000	-0.264000
-0.001348	-20.400000	-0.272000
-0.001346	-20.800000	-0.280000
-0.001344	-20.800000	-0.280000
-0.001342	-21.200000	-0.280000
-0.001340	-21.600000	-0.280000
-0.001338	-21.600000	-0.288000
-0.001336	-22.000000	-0.288000
-0.001334	-22.400000	-0.296000
-0.001332	-22.400000	-0.296000
-0.001330	-22.800000	-0.296000
-0.001328	-22.800000	-0.304000
-0.001326	-23.200000	-0.304000
-0.001324	-23.200000	-0.312000
-0.001322	-23.600000	-0.312000
-0.001320	-23.600000	-0.312000
-0.001318	-24.000000	-0.320000
-0.001316	-24.400000	-0.320000
-0.001314	-24.400000	-0.320000
-0.001312	-24.800000	-0.328000
-0.001310	-25.200000	-0.328000
-0.001308	-25.200000	-0.336000
-0.001306	-25.600000	-0.336000
-0.001304	-25.600000	-0.336000
-0.001302	-26.000000	-0.344000
-0.001300	-26.400000	-0.344000
-0.001298	-26.400000	-0.344000
-0.001296	-26.400000	-0.352000
-0.001294	-26.800000	-0.360000
-0.001292	-26.800000	-0.360000
-0.001290	-27.200000	-0.360000
-0.001288	-27.600000	-0.368000
-0.001286	-27.600000	-0.368000
-0.001284	-28.000000	-0.368000
-0.001282	-28.400000	-0.376000
-0.001280	-28.400000	-0.376000
-0.001278	-28.800000	-0.376000
-0.001276	-28.800000	-0.384000
-0.001274	-29.200000	-0.384000
-0.001272	-29.200000	-0.384000
-0.001270	-28.800000	-0.384000
-0.001268	-28.800000	-0.376000
-0.001266	-28.400000	-0.376000
-0.001264	-28.400000	-0.376000
-0.001262	-28.000000	-0.368000
-0.001260	-28.000000	-0.368000
-0.001258	-27.600000	-0.368000
-0.001256	-27.200000	-0.360000
-0.001254	-26.800000	-0.360000
-0.001252	-26.800000	-0.352000
-0.001250	-26.800000	-0.352000
-0.001248	-26.400000	-0.344000
-0.001246	-26.000000	-0.344000
-0.001244	-26.000000	-0.344000
-0.001242	-25.600000	-0.336000
-0.001240	-25.200000	-0.336000
-0.001238	-25.200000	-0.336000
-0.001236	-24.800000	-0.328000
-0.001234	-24.800000	-0.328000
-0.001232	-24.400000	-0.320000
-0.001230	-24.400000	-0.320000
-0.001228	-24.000000	-0.320000
-0.001226	-23.600000	-0.312000
-0.001224	-23.600000	-0.312000
-0.001222	-23.200000	-0.312000
-0.001220	-23.200000	-0.304000
-0.001218	-22.800000	-0.304000
-0.001216	-22.800000	-0.296000
-0.001214	-22.400000	-0.296000
-0.001212	-22.000000	-0.288000
-0.001210	-22.000000	-0.288000
-0.001208	-21.600000	-0.288000
-0.001206	-21.200000	-0.280000
-0.001204	-21.200000	-0.280000
-0.001202	-20.800000	-0.280000
-0.001200	-20.800000	-0.272000
-0.001198	-20.400000	-0.272000
-0.001196	-20.000000	-0.264000
-0.001194	-20.000000	-0.264000
-0.001192	-19.600000	-0.256000
-0.001190	-19.600000	-0.256000
-0.001188	-19.200000	-0.256000
-0.001186	-19.200000	-0.248000
-0.001184	-18.800000	-0.248000
-0.001182	-18.400000	-0.248000
-0.001180	-18.400000	-0.240000
-0.001178	-18.000000	-0.240000
-0.001176	-18.000000	-0.240000
-0.001174	-17.600000	-0.232000
-0.001172	-17.600000	-0.232000
-0.001170	-17.200000	-0.224000
-0.001168	-16.800000	-0.224000
-0.001166	-16.800000	-0.224000
-0.001164	-16.400000	-0.216000
-0.001162	-16.400000	-0.216000
-0.001160	-16.000000	-0.216000
-0.001158	-15.600000	-0.208000
-0.001156	-15.600000	-0.208000
-0.001154	-15.200000	-0.200000
-0.001152	-15.200000	-0.200000
-0.001150	-14.800000	-0.200000
-0.001148	-14.400000	-0.192000
-0.001146	-14.400000	-0.192000
-0.001144	-14.400000	-0.184000
-0.001142	-14.000000	-0.184000
-0.001140	-13.600000	-0.184000
-0.001138	-13.600000	-0.176000
-0.001136	-13.200000	-0.176000
-0.001134	-13.200000	-0.168000
-0.001132	-12.800000	-0.168000
-0.001130	-12.400000	-0.168000
-0.001128	-12.400000	-0.160000
-0.001126	-12.000000	-0.160000
-0.001124	-11.600000	-0.152000
-0.001122	-11.600000	-0.152000
-0.001120	-11.200000	-0.152000
-0.001118	-11.200000	-0.144000
-0.001116	-10.800000	-0.144000
-0.001114	-10.800000	-0.144000
-0.001112	-10.400000	-0.136000
-0.001110	-10.400000	-0.136000
-0.001108	-10.000000	-0.128000
-0.001106	-10.000000	-0.128000
-0.001104	-9.600000	-0.128000
-0.001102	-9.200000	-0.120000
-0.001100	-8.800000	-0.120000
-0.001098	-8.800000	-0.120000
-0.001096	-8.400000	-0.112000
-0.001094	-8.000000	-0.112000
-0.001092	-8.000000	-0.112000
-0.001090	-7.600000	-0.104000
-0.001088	-7.600000	-0.104000
-0.001086	-7.200000	-0.096000
-0.001084	-7.200000	-0.096000
-0.001082	-6.800000	-0.096000
-0.001080	-6.400000	-0.088000
-0.001078	-6.400000	-0.088000
-0.001076	-6.400000	-0.080000
-0.001074	-6.000000	-0.080000
-0.001072	-5.600000	-0.072000
-0.001070	-5.600000	-0.072000
-0.001068	-5.200000	-0.072000
-0.001066	-5.200000	-0.064000
-0.001064	-4.800000	-0.064000
-0.001062	-4.800000	-0.064000
-0.001060	-4.400000	-0.056000
-0.001058	-4.000000	-0.056000
-0.001056	-4.000000	-0.048000
-0.001054	-3.600000	-0.048000
-0.001052	-3.600000	-0.040000
-0.001050	-3.200000	-0.040000
-0.001048	-2.800000	-0.040000
-0.001046	-2.400000	-0.032000
-0.001044	-2.400000	-0.032000
-0.001042	-2.000000	-0.032000
-0.001040	-2.000000	-0.024000
-0.001038	-1.600000	-0.024000
-0.001036	-1.200000	-0.016000
-0.001034	-1.200000	-0.016000
-0.001032	-0.800000	-0.008000
-0.001030	-0.800000	-0.008000
-0.001028	-0.400000	-0.008000
-0.001026	-0.400000	0.000000
-0.001024	0.000000	0.000000
-0.001022	0.000000	0.000000
-0.001020	0.400000	0.008000
-0.001018	0.800000	0.008000
-0.001016	0.800000	0.016000
-0.001014	1.200000	0.016000
-0.001012	1.200000	0.016000
-0.001010	1.600000	0.024000
-0.001008	1.600000	0.024000
-0.001006	2.000000	0.032000
-0.001004	2.000000	0.032000
-0.001002	2.400000	0.032000
-0.001000	2.800000	0.040000
-0.000998	3.200000	0.040000
-0.000996	3.200000	0.040000
-0.000994	3.600000	0.048000
-0.000992	3.600000	0.048000
-0.000990	4.000000	0.048000
-0.000988	4.000000	0.056000
-0.000986	4.400000	0.056000
-0.000984	4.800000	0.064000
-0.000982	4.800000	0.064000
-0.000980	5.200000	0.072000
-0.000978	5.200000	0.072000
-0.000976	5.600000	0.072000
-0.000974	5.600000	0.080000
-0.000972	6.000000	0.080000
-0.000970	6.400000	0.080000
-0.000968	6.400000	0.088000
-0.000966	6.800000	0.088000
-0.000964	6.800000	0.096000
-0.000962	7.200000	0.096000
-0.000960	7.600000	0.096000
-0.000958	7.600000	0.104000
-0.000956	8.000000	0.104000
-0.000954	8.000000	0.112000
-0.000952	8.400000	0.112000
-0.000950	8.400000	0.112000
-0.000948	8.800000	0.120000
-0.000946	9.200000	0.120000
-0.000944	9.200000	0.120000
-0.000942	9.600000	0.128000
-0.000940	9.600000	0.128000
-0.000938	10.000000	0.128000
-0.000936	10.400000	0.136000
-0.000934	10.400000	0.136000
-0.000932	10.800000	0.144000
-0.000930	10.800000	0.144000
-0.000928	11.200000	0.152000
-0.000926	11.600000	0.152000
-0.000924	11.600000	0.152000
-0.000922	12.000000	0.160000
-0.000920	12.000000	0.160000
-0.000918	12.400000	0.160000
-0.000916	12.400000	0.168000
-0.000914	12.800000	0.168000
-0.000912	12.800000	0.176000
-0.000910	13.200000	0.176000
-0.000908	13.600000	0.176000
-0.000906	13.600000	0.184000
-0.000904	14.000000	0.184000
-0.000902	14.000000	0.192000
-0.000900	14.400000	0.192000
-0.000898	14.400000	0.192000
-0.000896	14.800000	0.200000
-0.000894	15.200000	0.200000
-0.000892	15.600000	0.200000
-0.000890	15.600000	0.208000
-0.000888	16.000000	0.208000
-0.000886	16.000000	0.208000
-0.000884	16.400000	0.216000
-0.000882	16.400000	0.216000
-0.000880	16.800000	0.216000
-0.000878	17.200000	0.224000
-0.000876	17.200000	0.232000
-0.000874	17.600000	0.232000
-0.000872	17.600000	0.232000
-0.000870	18.000000	0.240000
-0.000868	18.000000	0.240000
-0.000866	18.400000	0.240000
-0.000864	18.400000	0.248000
-0.000862	18.800000	0.248000
-0.000860	18.800000	0.256000
-0.000858	19.200000	0.256000
-0.000856	19.600000	0.256000
-0.000854	19.600000	0.264000
-0.000852	20.000000	0.264000
-0.000850	20.000000	0.272000
-0.000848	20.400000	0.272000
-0.000846	20.800000	0.272000
-0.000844	20.800000	0.280000
-0.000842	21.200000	0.280000
-0.000840	21.600000	0.280000
-0.000838	21.600000	0.288000
-0.000836	22.000000	0.288000
-0.000834	22.000000	0.288000
-0.000832	22.400000	0.296000
-0.000830	22.400000	0.296000
-0.000828	22.800000	0.296000
-0.000826	22.800000	0.304000
-0.000824	23.200000	0.312000
-0.000822	23.600000	0.312000
-0.000820	23.600000	0.312000
-0.000818	24.000000	0.320000
-0.000816	24.000000	0.320000
-0.000814	24.400000	0.320000
-0.000812	24.800000	0.328000
-0.000810	24.800000	0.328000
-0.000808	25.200000	0.336000
-0.000806	25.200000	0.336000
-0.000804	25.600000	0.336000
-0.000802	25.600000	0.344000
-0.000800	26.000000	0.344000
-0.000798	26.000000	0.352000
-0.000796	26.400000	0.352000
-0.000794	26.400000	0.352000
-0.000792	26.800000	0.360000
-0.000790	27.200000	0.360000
-0.000788	27.600000	0.360000
-0.000786	27.600000	0.368000
-0.000784	28.000000	0.368000
-0.000782	28.000000	0.368000
-0.000780	28.400000	0.376000
-0.000778	28.400000	0.376000
-0.000776	28.800000	0.376000
-0.000774	28.800000	0.384000
-0.000772	28.800000	0.384000
-0.000770	28.800000	0.376000
-0.000768	28.800000	0.376000
-0.000766	28.400000	0.376000
-0.000764	28.000000	0.368000
-0.000762	28.000000	0.368000
-0.000760	27.600000	0.368000
-0.000758	27.600000	0.360000
-0.000756	27.200000	0.360000
-0.000754	26.800000	0.360000
-0.000752	26.800000	0.352000
-0.000750	26.400000	0.352000
-0.000748	26.000000	0.352000
-0.000746	26.000000	0.344000
-0.000744	25.600000	0.344000
-0.000742	25.600000	0.336000
-0.000740	25.200000	0.336000
-0.000738	25.200000	0.336000
-0.000736	24.800000	0.328000
-0.000734	24.400000	0.328000
-0.000732	24.400000	0.320000
-0.000730	24.000000	0.320000
-0.000728	24.000000	0.320000
-0.000726	23.600000	0.312000
-0.000724	23.600000	0.312000
-0.000722	23.200000	0.312000
-0.000720	22.800000	0.304000
-0.000718	22.800000	0.296000
-0.000716	22.400000	0.296000
-0.000714	22.400000	0.296000
-0.000712	22.000000	0.288000
-0.000710	21.600000	0.288000
-0.000708	21.600000	0.288000
-0.000706	21.200000	0.280000
-0.000704	21.200000	0.280000
-0.000702	20.800000	0.280000
-0.000700	20.400000	0.272000
-0.000698	20.400000	0.272000
-0.000696	20.000000	0.272000
-0.000694	20.000000	0.264000
-0.000692	19.600000	0.264000
-0.000690	19.600000	0.256000
-0.000688	19.200000	0.256000
-0.000686	18.800000	0.256000
-0.000684	18.800000	0.248000
-0.000682	18.400000	0.248000
-0.000680	18.400000	0.240000
-0.000678	18.000000	0.240000
-0.000676	18.000000	0.240000
-0.000674	17.600000	0.232000
-0.000672	17.200000	0.232000
-0.000670	17.200000	0.232000
-0.000668	16.800000	0.224000
-0.000666	16.800000	0.216000
-0.000664	16.400000	0.216000
-0.000662	16.400000	0.216000
-0.000660	16.000000	0.208000
-0.000658	15.600000	0.208000
-0.000656	15.600000	0.200000
-0.000654	15.200000	0.200000
-0.000652	15.200000	0.200000
-0.000650	14.800000	0.200000
-0.000648	14.400000	0.192000
-0.000646	14.000000	0.192000
-0.000644	14.000000	0.184000
-0.000642	13.600000	0.184000
-0.000640	13.600000	0.184000
-0.000638	13.200000	0.176000
-0.000636	13.200000	0.176000
-0.000634	12.800000	0.176000
-0.000632	12.800000	0.168000
-0.000630	12.400000	0.168000
-0.000628	12.000000	0.160000
-0.000626	12.000000	0.160000
-0.000624	11.600000	0.160000
-0.000622	11.600000	0.152000
-0.000620	11.200000	0.152000
-0.000618	10.800000	0.152000
-0.000616	10.800000	0.144000
-0.000614	10.400000	0.144000
-0.000612	10.400000	0.136000
-0.000610	10.000000	0.136000
-0.000608	10.000000	0.128000
-0.000606	9.600000	0.128000
-0.000604	9.200000	0.128000
-0.000602	9.200000	0.120000
-0.000600	9.200000	0.120000
-0.000598	8.800000	0.112000
-0.000596	8.400000	0.112000
-0.000594	8.000000	0.112000
-0.000592	8.000000	0.104000
-0.000590	7.600000	0.104000
-0.000588	7.600000	0.104000
-0.000586	7.200000	0.096000
-0.000584	7.200000	0.096000
-0.000582	6.800000	0.088000
-0.000580	6.400000	0.088000
-0.000578	6.400000	0.088000
-0.000576	6.000000	0.080000
-0.000574	6.000000	0.080000
-0.000572	5.600000	0.080000
-0.000570	5.200000	0.072000
-0.000568	5.200000	0.072000
-0.000566	4.800000	0.072000
-0.000564	4.800000	0.064000
-0.000562	4.400000	0.064000
-0.000560	4.400000	0.056000
-0.000558	4.000000	0.056000
-0.000556	3.600000	0.048000
-0.000554	3.600000	0.048000
-0.000552	3.200000	0.040000
-0.000550	3.200000	0.040000
-0.000548	2.800000	0.040000
-0.000546	2.400000	0.040000
-0.000544	2.400000	0.032000
-0.000542	2.000000	0.032000
-0.000540	2.000000	0.024000
-0.000538	1.600000	0.024000
-0.000536	1.200000	0.024000
-0.000534	1.200000	0.016000
-0.000532	0.800000	0.016000
-0.000530	0.800000	0.008000
-0.000528	0.400000	0.008000
-0.000526	0.400000	0.008000
-0.000524	0.000000	0.000000
-0.000522	0.000000	0.000000
-0.000520	-0.400000	0.000000
-0.000518	-0.400000	-0.008000
-0.000516	-0.800000	-0.008000
-0.000514	-1.200000	-0.016000
-0.000512	-1.200000	-0.016000
-0.000510	-1.600000	-0.016000
-0.000508	-1.600000	-0.024000
-0.000506	-2.000000	-0.024000
-0.000504	-2.400000	-0.032000
-0.000502	-2.400000	-0.032000
-0.000500	-2.800000	-0.040000
-0.000498	-3.200000	-0.040000
-0.000496	-3.200000	-0.040000
-0.000494	-3.600000	-0.048000
-0.000492	-3.600000	-0.048000
-0.000490	-4.000000	-0.056000
-0.000488	-4.400000	-0.056000
-0.000486	-4.400000	-0.056000
-0.000484	-4.800000	-0.064000
-0.000482	-4.800000	-0.064000
-0.000480	-5.200000	-0.064000
-0.000478	-5.600000	-0.072000
-0.000476	-5.600000	-0.072000
-0.000474	-6.000000	-0.080000
-0.000472	-6.000000	-0.080000
-0.000470	-6.400000	-0.080000
-0.000468	-6.400000	-0.088000
-0.000466	-6.800000	-0.088000
-0.000464	-6.800000	-0.096000
-0.000462	-7.200000	-0.096000
-0.000460	-7.600000	-0.096000
-0.000458	-7.600000	-0.104000
-0.000456	-8.000000	-0.104000
-0.000454	-8.000000	-0.112000
-0.000452	-8.400000	-0.112000
-0.000450	-8.800000	-0.120000
-0.000448	-8.800000	-0.120000
-0.000446	-9.200000	-0.120000
-0.000444	-9.600000	-0.120000
-0.000442	-9.600000	-0.128000
-0.000440	-10.000000	-0.128000
-0.000438	-10.000000	-0.136000
-0.000436	-10.400000	-0.136000
-0.000434	-10.400000	-0.136000
-0.000432	-10.800000	-0.144000
-0.000430	-10.800000	-0.144000
-0.000428	-11.200000	-0.144000
-0.000426	-11.600000	-0.152000
-0.000424	-11.600000	-0.152000
-0.000422	-12.000000	-0.160000
-0.000420	-12.400000	-0.160000
-0.000418	-12.400000	-0.160000
-0.000416	-12.800000	-0.168000
-0.000414	-12.800000	-0.168000
-0.000412	-13.200000	-0.176000
-0.000410	-13.200000	-0.176000
-0.000408	-13.600000	-0.176000
-0.000406	-14.000000	-0.184000
-0.000404	-14.000000	-0.184000
-0.000402	-14.400000	-0.184000
-0.000400	-14.400000	-0.192000
-0.000398	-14.800000	-0.200000
-0.000396	-14.800000	-0.200000
-0.000394	-15.200000	-0.200000
-0.000392	-15.200000	-0.200000
-0.000390	-15.600000	-0.208000
-0.000388	-16.000000	-0.208000
-0.000386	-16.000000	-0.216000
-0.000384	-16.400000	-0.216000
-0.000382	-16.800000	-0.216000
-0.000380	-16.800000	-0.224000
-0.000378	-17.200000	-0.224000
-0.000376	-17.200000	-0.232000
-0.000374	-17.600000	-0.232000
-0.000372	-17.600000	-0.232000
-0.000370	-18.000000	-0.240000
-0.000368	-18.400000	-0.240000
-0.000366	-18.400000	-0.240000
-0.000364	-18.800000	-0.248000
-0.000362	-18.800000	-0.248000
-0.000360	-19.200000	-0.248000
-0.000358	-19.200000	-0.256000
-0.000356	-19.600000	-0.256000
-0.000354	-19.600000	-0.264000
-0.000352	-20.000000	-0.264000
-0.000350	-20.400000	-0.264000
-0.000348	-20.400000	-0.272000
-0.000346	-20.800000	-0.280000
-0.000344	-20.800000	-0.280000
-0.000342	-21.200000	-0.280000
-0.000340	-21.600000	-0.280000
-0.000338	-22.000000	-0.288000
-0.000336	-22.000000	-0.288000
-0.000334	-22.400000	-0.296000
-0.000332	-22.400000	-0.296000
-0.000330	-22.800000	-0.296000
-0.000328	-22.800000	-0.304000
-0.000326	-23.200000	-0.304000
-0.000324	-23.200000	-0.312000
-0.000322	-23.600000	-0.312000
-0.000320	-24.000000	-0.312000
-0.000318	-24.000000	-0.320000
-0.000316	-24.400000	-0.320000
-0.000314	-24.400000	-0.320000
-0.000312	-24.800000	-0.328000
-0.000310	-24.800000	-0.328000
-0.000308	-25.200000	-0.336000
-0.000306	-25.600000	-0.336000
-0.000304	-25.600000	-0.336000
-0.000302	-26.000000	-0.344000
-0.000300	-26.000000	-0.344000
-0.000298	-26.400000	-0.344000
-0.000296	-26.400000	-0.352000
-0.000294	-26.800000	-0.360000
-0.000292	-26.800000	-0.360000
-0.000290	-27.200000	-0.360000
-0.000288	-27.600000	-0.360000
-0.000286	-27.600000	-0.368000
-0.000284	-28.000000	-0.368000
-0.000282	-28.400000	-0.376000
-0.000280	-28.400000	-0.376000
-0.000278	-28.800000	-0.376000
-0.000276	-28.800000	-0.384000
-0.000274	-29.200000	-0.384000
-0.000272	-29.200000	-0.384000
-0.000270	-29.200000	-0.384000
-0.000268	-28.800000	-0.376000
-0.000266	-28.400000	-0.376000
-0.000264	-28.400000	-0.376000
-0.000262	-28.000000	-0.368000
-0.000260	-28.000000	-0.368000
-0.000258	-27.600000	-0.368000
-0.000256	-27.200000	-0.360000
-0.000254	-26.800000	-0.360000
-0.000252	-26.800000	-0.360000
-0.000250	-26.800000	-0.352000
-0.000248	-26.400000	-0.352000
-0.000246	-26.000000	-0.344000
-0.000244	-26.000000	-0.344000
-0.000242	-25.600000	-0.336000
-0.000240	-25.600000	-0.336000
-0.000238	-25.200000	-0.328000
-0.000236	-24.800000	-0.328000
-0.000234	-24.800000	-0.328000
-0.000232	-24.400000	-0.320000
-0.000230	-24.400000	-0.320000
-0.000228	-24.000000	-0.320000
-0.000226	-23.600000	-0.312000
-0.000224	-23.600000	-0.312000
-0.000222	-23.200000	-0.304000
-0.000220	-23.200000	-0.304000
-0.000218	-22.800000	-0.304000
-0.000216	-22.800000	-0.296000
-0.000214	-22.400000	-0.296000
-0.000212	-22.400000	-0.288000
-0.000210	-22.000000	-0.288000
-0.000208	-21.600000	-0.288000
-0.000206	-21.200000	-0.280000
-0.000204	-21.200000	-0.280000
-0.000202	-20.800000	-0.280000
-0.000200	-20.800000	-0.272000
-0.000198	-20.400000	-0.272000
-0.000196	-20.000000	-0.264000
-0.000194	-20.000000	-0.264000
-0.000192	-19.600000	-0.264000
-0.000190	-19.600000	-0.256000
-0.000188	-19.200000	-0.256000
-0.000186	-18.800000	-0.248000
-0.000184	-18.800000	-0.248000
-0.000182	-18.400000	-0.248000
-0.000180	-18.400000	-0.240000
-0.000178	-18.000000	-0.240000
-0.000176	-18.000000	-0.240000
-0.000174	-17.600000	-0.232000
-0.000172	-17.600000	-0.232000
-0.000170	-17.200000	-0.224000
-0.000168	-16.800000	-0.224000
-0.000166	-16.800000	-0.224000
-0.000164	-16.400000	-0.216000
-0.000162	-16.400000	-0.216000
-0.000160	-16.000000	-0.216000
-0.000158	-15.600000	-0.208000
-0.000156	-15.600000	-0.208000
-0.000154	-15.200000	-0.200000
-0.000152	-14.800000	-0.200000
-0.000150	-14.800000	-0.200000
-0.000148	-14.400000	-0.192000
-0.000146	-14.400000	-0.192000
-0.000144	-14.000000	-0.184000
-0.000142	-14.000000	-0.184000
-0.000140	-13.600000	-0.184000
-0.000138	-13.600000	-0.176000
-0.000136	-13.200000	-0.176000
-0.000134	-12.800000	-0.168000
-0.000132	-12.800000	-0.168000
-0.000130	-12.400000	-0.168000
-0.000128	-12.400000	-0.160000
-0.000126	-12.000000	-0.160000
-0.000124	-12.000000	-0.152000
-0.000122	-11.600000	-0.152000
-0.000120	-11.200000	-0.152000
-0.000118	-11.200000	-0.144000
-0.000116	-10.800000	-0.144000
-0.000114	-10.800000	-0.144000
-0.000112	-10.400000	-0.136000
-0.000110	-10.400000	-0.136000
-0.000108	-10.000000	-0.128000
-0.000106	-10.000000	-0.128000
-0.000104	-9.600000	-0.128000
-0.000102	-9.200000	-0.120000
-0.000100	-8.800000	-0.120000
-9.800000E-5	-8.800000	-0.120000
-9.600000E-5	-8.400000	-0.112000
-9.400000E-5	-8.400000	-0.112000
-9.200000E-5	-8.000000	-0.112000
-9.000000E-5	-7.600000	-0.104000
-8.800000E-5	-7.600000	-0.104000
-8.600000E-5	-7.200000	-0.096000
-8.400000E-5	-7.200000	-0.096000
-8.200000E-5	-6.800000	-0.088000
-8.000000E-5	-6.400000	-0.088000
-7.800000E-5	-6.400000	-0.088000
-7.600000E-5	-6.000000	-0.080000
-7.400000E-5	-6.000000	-0.080000
-7.200000E-5	-5.600000	-0.072000
-7.000000E-5	-5.600000	-0.072000
-6.800000E-5	-5.200000	-0.072000
-6.600000E-5	-5.200000	-0.064000
-6.400000E-5	-4.800000	-0.064000
-6.200000E-5	-4.800000	-0.064000
-6.000000E-5	-4.400000	-0.056000
-5.800000E-5	-4.000000	-0.056000
-5.600000E-5	-4.000000	-0.048000
-5.400000E-5	-3.600000	-0.048000
-5.200000E-5	-3.600000	-0.040000
-5.000000E-5	-3.200000	-0.040000
-4.800000E-5	-2.800000	-0.040000
-4.600000E-5	-2.400000	-0.032000
-4.400000E-5	-2.400000	-0.032000
-4.200000E-5	-2.000000	-0.032000
-4.000000E-5	-2.000000	-0.024000
-3.800000E-5	-1.600000	-0.024000
-3.600000E-5	-1.200000	-0.016000
-3.400000E-5	-1.200000	-0.016000
-3.200000E-5	-0.800000	-0.008000
-3.000000E-5	-0.800000	-0.008000
-2.800000E-5	-0.400000	-0.008000
-2.600000E-5	-0.400000	0.000000
-2.400000E-5	0.000000	0.000000
-2.200000E-5	0.000000	0.000000
-2.000000E-5	0.400000	0.008000
-1.800000E-5	0.800000	0.008000
-1.600000E-5	0.800000	0.016000
-1.400000E-5	1.200000	0.016000
-1.200000E-5	1.200000	0.016000
-1.000000E-5	1.600000	0.024000
-8.000000E-6	1.600000	0.024000
-6.000000E-6	2.000000	0.032000
-4.000000E-6	2.400000	0.032000
-2.000000E-6	2.400000	0.032000
0.000000	2.800000	0.040000
2.000000E-6	3.200000	0.040000
4.000000E-6	3.200000	0.040000
6.000000E-6	3.600000	0.048000
8.000000E-6	3.600000	0.048000
1.000000E-5	4.000000	0.048000
1.200000E-5	4.000000	0.056000
1.400000E-5	4.400000	0.056000
1.600000E-5	4.800000	0.064000
1.800000E-5	4.800000	0.064000
2.000000E-5	5.200000	0.072000
2.200000E-5	5.200000	0.072000
2.400000E-5	5.600000	0.072000
2.600000E-5	5.600000	0.080000
2.800000E-5	6.000000	0.080000
3.000000E-5	6.400000	0.080000
3.200000E-5	6.400000	0.088000
3.400000E-5	6.800000	0.088000
3.600000E-5	6.800000	0.096000
3.800000E-5	7.200000	0.096000
4.000000E-5	7.200000	0.096000
4.200000E-5	7.600000	0.104000
4.400000E-5	8.000000	0.104000
4.600000E-5	8.000000	0.112000
4.800000E-5	8.400000	0.112000
5.000000E-5	8.400000	0.112000
5.200000E-5	8.800000	0.120000
5.400000E-5	9.200000	0.120000
5.600000E-5	9.200000	0.120000
5.800000E-5	9.600000	0.128000
6.000000E-5	9.600000	0.128000
6.200000E-5	10.000000	0.128000
6.400000E-5	10.000000	0.136000
6.600000E-5	10.400000	0.136000
6.800000E-5	10.800000	0.144000
7.000000E-5	10.800000	0.144000
7.200000E-5	11.200000	0.152000
7.400000E-5	11.600000	0.152000
7.600000E-5	11.600000	0.152000
7.800000E-5	12.000000	0.160000
8.000000E-5	12.000000	0.160000
8.200000E-5	12.400000	0.160000
8.400000E-5	12.400000	0.168000
8.600000E-5	12.800000	0.168000
8.800000E-5	12.800000	0.176000
9.000000E-5	13.200000	0.176000
9.200000E-5	13.600000	0.176000
9.400000E-5	13.600000	0.184000
9.600000E-5	14.000000	0.184000
9.800000E-5	14.000000	0.192000
1.000000E-4	14.400000	0.192000
0.000102	14.400000	0.192000
0.000104	14.800000	0.200000
0.000106	15.200000	0.200000
0.000108	15.200000	0.200000
0.000110	15.600000	0.208000
0.000112	16.000000	0.208000
0.000114	16.000000	0.208000
0.000116	16.400000	0.216000
0.000118	16.400000	0.216000
0.000120	16.800000	0.216000
0.000122	17.200000	0.224000
0.000124	17.200000	0.224000
0.000126	17.600000	0.232000
0.000128	17.600000	0.232000
0.000130	18.000000	0.240000
0.000132	18.000000	0.240000
0.000134	18.400000	0.240000
0.000136	18.400000	0.248000
0.000138	18.800000	0.248000
0.000140	19.200000	0.256000
0.000142	19.200000	0.256000
0.000144	19.600000	0.256000
0.000146	19.600000	0.264000
0.000148	20.000000	0.264000
0.000150	20.000000	0.272000
0.000152	20.400000	0.272000
0.000154	20.800000	0.272000
0.000156	20.800000	0.280000
0.000158	21.200000	0.280000
0.000160	21.600000	0.280000
0.000162	21.600000	0.288000
0.000164	22.000000	0.288000
0.000166	22.000000	0.288000
0.000168	22.400000	0.296000
0.000170	22.400000	0.296000
0.000172	22.800000	0.296000
0.000174	22.800000	0.304000
0.000176	23.200000	0.312000
0.000178	23.200000	0.312000
0.000180	23.600000	0.312000
0.000182	24.000000	0.320000
0.000184	24.000000	0.320000
0.000186	24.400000	0.320000
0.000188	24.800000	0.328000
0.000190	24.800000	0.328000
0.000192	25.200000	0.336000
0.000194	25.200000	0.336000
0.000196	25.600000	0.336000
0.000198	25.600000	0.344000
0.000200	26.000000	0.344000
0.000202	26.000000	0.352000
0.000204	26.400000	0.352000
0.000206	26.400000	0.352000
0.000208	26.800000	0.360000
0.000210	27.200000	0.360000
0.000212	27.200000	0.360000
0.000214	27.600000	0.368000
0.000216	28.000000	0.368000
0.000218	28.000000	0.368000
0.000220	28.400000	0.376000
0.000222	28.400000	0.376000
0.000224	28.800000	0.376000
0.000226	28.800000	0.384000
0.000228	28.800000	0.384000
0.000230	28.800000	0.384000
0.000232	28.800000	0.376000
0.000234	28.400000	0.376000
0.000236	28.000000	0.368000
0.000238	28.000000	0.368000
0.000240	27.600000	0.368000
0.000242	27.600000	0.360000
0.000244	27.200000	0.360000
0.000246	26.800000	0.360000
0.000248	26.800000	0.352000
0.000250	26.400000	0.352000
0.000252	26.000000	0.344000
0.000254	26.000000	0.344000
0.000256	25.600000	0.344000
0.000258	25.600000	0.336000
0.000260	25.200000	0.336000
0.000262	25.200000	0.328000
0.000264	24.800000	0.328000
0.000266	24.800000	0.328000
0.000268	24.400000	0.320000
0.000270	24.000000	0.320000
0.000272	24.000000	0.320000
0.000274	23.600000	0.312000
0.000276	23.600000	0.312000
0.000278	23.200000	0.312000
0.000280	22.800000	0.304000
0.000282	22.800000	0.296000
0.000284	22.400000	0.296000
0.000286	22.400000	0.296000
0.000288	22.000000	0.288000
0.000290	21.600000	0.288000
0.000292	21.600000	0.288000
0.000294	21.200000	0.280000
0.000296	21.200000	0.280000
0.000298	20.800000	0.280000
0.000300	20.400000	0.272000
0.000302	20.400000	0.272000
0.000304	20.000000	0.264000
0.000306	20.000000	0.264000
0.000308	19.600000	0.264000
0.000310	19.200000	0.256000
0.000312	19.200000	0.256000
0.000314	18.800000	0.256000
0.000316	18.800000	0.248000
0.000318	18.400000	0.248000
0.000320	18.000000	0.240000
0.000322	18.000000	0.240000
0.000324	18.000000	0.240000
0.000326	17.600000	0.232000
0.000328	17.200000	0.232000
0.000330	17.200000	0.224000
0.000332	16.800000	0.224000
0.000334	16.800000	0.216000
0.000336	16.400000	0.216000
0.000338	16.400000	0.216000
0.000340	16.000000	0.208000
0.000342	15.600000	0.208000
0.000344	15.600000	0.200000
0.000346	15.200000	0.200000
0.000348	15.200000	0.200000
0.000350	14.800000	0.200000
0.000352	14.400000	0.192000
0.000354	14.000000	0.192000
0.000356	14.000000	0.184000
0.000358	13.600000	0.184000
0.000360	13.600000	0.184000
0.000362	13.200000	0.176000
0.000364	13.200000	0.176000
0.000366	12.800000	0.176000
0.000368	12.800000	0.168000
0.000370	12.400000	0.168000
0.000372	12.000000	0.160000
0.000374	12.000000	0.160000
0.000376	11.600000	0.160000
0.000378	11.600000	0.152000
0.000380	11.200000	0.152000
0.000382	10.800000	0.144000
0.000384	10.800000	0.144000
0.000386	10.400000	0.144000
0.000388	10.400000	0.136000
0.000390	10.000000	0.136000
0.000392	10.000000	0.128000
0.000394	9.600000	0.128000
0.000396	9.600000	0.128000
0.000398	9.200000	0.120000
0.000400	9.200000	0.120000
0.000402	8.800000	0.112000
0.000404	8.400000	0.112000
0.000406	8.400000	0.112000
0.000408	8.000000	0.104000
0.000410	7.600000	0.104000
0.000412	7.600000	0.104000
0.000414	7.200000	0.096000
0.000416	7.200000	0.096000
0.000418	6.800000	0.088000
0.000420	6.400000	0.088000
0.000422	6.400000	0.088000
0.000424	6.000000	0.080000
0.000426	6.000000	0.080000
0.000428	5.600000	0.080000
0.000430	5.600000	0.072000
0.000432	5.200000	0.072000
0.000434	4.800000	0.064000
0.000436	4.800000	0.064000
0.000438	4.400000	0.064000
0.000440	4.400000	0.056000
0.000442	4.000000	0.048000
0.000444	4.000000	0.048000
0.000446	3.600000	0.048000
0.000448	3.600000	0.040000
0.000450	3.200000	0.040000
0.000452	2.800000	0.040000
0.000454	2.400000	0.040000
0.000456	2.400000	0.032000
0.000458	2.000000	0.032000
0.000460	2.000000	0.024000
0.000462	1.600000	0.024000
0.000464	1.200000	0.024000
0.000466	1.200000	0.016000
0.000468	0.800000	0.016000
0.000470	0.800000	0.008000
0.000472	0.400000	0.008000
0.000474	0.400000	0.008000
0.000476	0.000000	0.000000
0.000478	0.000000	0.000000
0.000480	-0.400000	0.000000
0.000482	-0.400000	-0.008000
0.000484	-0.800000	-0.008000
0.000486	-1.200000	-0.016000
0.000488	-1.200000	-0.016000
0.000490	-1.600000	-0.016000
0.000492	-1.600000	-0.024000
0.000494	-2.000000	-0.024000
0.000496	-2.400000	-0.032000
0.000498	-2.400000	-0.032000
0.000500	-2.800000	-0.032000
0.000502	-2.800000	-0.040000
0.000504	-3.200000	-0.040000
0.000506	-3.600000	-0.048000
0.000508	-4.000000	-0.048000
0.000510	-4.000000	-0.048000
0.000512	-4.400000	-0.056000
0.000514	-4.400000	-0.056000
0.000516	-4.800000	-0.064000
0.000518	-4.800000	-0.064000
0.000520	-5.200000	-0.064000
0.000522	-5.600000	-0.072000
0.000524	-5.600000	-0.072000
0.000526	-6.000000	-0.080000
0.000528	-6.000000	-0.080000
0.000530	-6.400000	-0.080000
0.000532	-6.400000	-0.088000
0.000534	-6.800000	-0.088000
0.000536	-6.800000	-0.096000
0.000538	-7.200000	-0.096000
0.000540	-7.600000	-0.096000
0.000542	-7.600000	-0.104000
0.000544	-8.000000	-0.104000
0.000546	-8.000000	-0.112000
0.000548	-8.400000	-0.112000
0.000550	-8.800000	-0.120000
0.000552	-8.800000	-0.120000
0.000554	-9.200000	-0.120000
0.000556	-9.600000	-0.120000
0.000558	-9.600000	-0.128000
0.000560	-10.000000	-0.128000
0.000562	-10.000000	-0.136000
0.000564	-10.400000	-0.136000
0.000566	-10.400000	-0.136000
0.000568	-10.800000	-0.144000
0.000570	-11.200000	-0.144000
0.000572	-11.200000	-0.144000
0.000574	-11.600000	-0.152000
0.000576	-11.600000	-0.152000
0.000578	-12.000000	-0.160000
0.000580	-12.000000	-0.160000
0.000582	-12.400000	-0.160000
0.000584	-12.800000	-0.168000
0.000586	-12.800000	-0.168000
0.000588	-13.200000	-0.168000
0.000590	-13.200000	-0.176000
0.000592	-13.600000	-0.176000
0.000594	-14.000000	-0.184000
0.000596	-14.000000	-0.184000
0.000598	-14.400000	-0.184000
0.000600	-14.400000	-0.192000
0.000602	-14.800000	-0.200000
0.000604	-14.800000	-0.200000
0.000606	-15.200000	-0.200000
0.000608	-15.200000	-0.200000
0.000610	-15.600000	-0.208000
0.000612	-16.000000	-0.208000
0.000614	-16.000000	-0.216000
0.000616	-16.400000	-0.216000
0.000618	-16.800000	-0.216000
0.000620	-16.800000	-0.224000
0.000622	-17.200000	-0.224000
0.000624	-17.200000	-0.232000
0.000626	-17.600000	-0.232000
0.000628	-17.600000	-0.232000
0.000630	-18.000000	-0.240000
0.000632	-18.400000	-0.240000
0.000634	-18.400000	-0.240000
0.000636	-18.800000	-0.248000
0.000638	-18.800000	-0.248000
0.000640	-19.200000	-0.256000
0.000642	-19.200000	-0.256000
0.000644	-19.600000	-0.256000
0.000646	-20.000000	-0.264000
0.000648	-20.000000	-0.264000
0.000650	-20.400000	-0.264000
0.000652	-20.400000	-0.272000
0.000654	-20.800000	-0.272000
0.000656	-21.200000	-0.280000
0.000658	-21.200000	-0.280000
0.000660	-21.200000	-0.280000
0.000662	-22.000000	-0.288000
0.000664	-22.000000	-0.288000
0.000666	-22.400000	-0.296000
0.000668	-22.400000	-0.296000
0.000670	-22.800000	-0.296000
0.000672	-22.800000	-0.304000
0.000674	-23.200000	-0.304000
0.000676	-23.200000	-0.312000
0.000678	-23.600000	-0.312000
0.000680	-23.600000	-0.312000
0.000682	-24.000000	-0.320000
0.000684	-24.400000	-0.320000
0.000686	-24.400000	-0.320000
0.000688	-24.800000	-0.328000
0.000690	-24.800000	-0.328000
0.000692	-25.200000	-0.336000
0.000694	-25.200000	-0.336000
0.000696	-25.600000	-0.336000
0.000698	-26.000000	-0.344000
0.000700	-26.000000	-0.344000
0.000702	-26.400000	-0.344000
0.000704	-26.400000	-0.352000
0.000706	-26.800000	-0.352000
0.000708	-26.800000	-0.360000
0.000710	-27.200000	-0.360000
0.000712	-27.600000	-0.368000
0.000714	-27.600000	-0.368000
0.000716	-28.000000	-0.368000
0.000718	-28.400000	-0.376000
0.000720	-28.400000	-0.376000
0.000722	-28.800000	-0.376000
0.000724	-28.800000	-0.384000
0.000726	-29.200000	-0.384000
0.000728	-29.200000	-0.384000
0.000730	-28.800000	-0.384000
0.000732	-28.800000	-0.376000
0.000734	-28.400000	-0.376000
0.000736	-28.400000	-0.376000
0.000738	-28.000000	-0.368000
0.000740	-28.000000	-0.368000
0.000742	-27.600000	-0.360000
0.000744	-27.200000	-0.360000
0.000746	-27.200000	-0.360000
0.000748	-26.800000	-0.360000
0.000750	-26.400000	-0.352000
0.000752	-26.400000	-0.352000
0.000754	-26.000000	-0.344000
0.000756	-26.000000	-0.344000
0.000758	-25.600000	-0.336000
0.000760	-25.600000	-0.336000
0.000762	-25.200000	-0.336000
0.000764	-24.800000	-0.328000
0.000766	-24.800000	-0.328000
0.000768	-24.400000	-0.320000
0.000770	-24.400000	-0.320000
0.000772	-24.000000	-0.320000
0.000774	-23.600000	-0.312000
0.000776	-23.600000	-0.312000
0.000778	-23.200000	-0.304000
0.000780	-23.200000	-0.304000
0.000782	-22.800000	-0.304000
0.000784	-22.800000	-0.296000
0.000786	-22.400000	-0.296000
0.000788	-22.400000	-0.296000
0.000790	-22.000000	-0.288000
0.000792	-21.600000	-0.288000
0.000794	-21.200000	-0.280000
0.000796	-21.200000	-0.280000
0.000798	-20.800000	-0.280000
0.000800	-20.800000	-0.272000
0.000802	-20.400000	-0.272000
0.000804	-20.000000	-0.264000
0.000806	-20.000000	-0.264000
0.000808	-19.600000	-0.264000
0.000810	-19.600000	-0.256000
0.000812	-19.200000	-0.256000
0.000814	-19.200000	-0.248000
0.000816	-18.800000	-0.248000
0.000818	-18.400000	-0.248000
0.000820	-18.400000	-0.240000
0.000822	-18.000000	-0.240000
0.000824	-18.000000	-0.240000
0.000826	-17.600000	-0.232000
0.000828	-17.600000	-0.232000
0.000830	-17.200000	-0.224000
0.000832	-16.800000	-0.224000
0.000834	-16.800000	-0.224000
0.000836	-16.400000	-0.216000
0.000838	-16.400000	-0.216000
0.000840	-16.000000	-0.216000
0.000842	-15.600000	-0.208000
0.000844	-15.600000	-0.208000
0.000846	-15.200000	-0.200000
0.000848	-15.200000	-0.200000
0.000850	-14.800000	-0.200000
0.000852	-14.400000	-0.192000
0.000854	-14.400000	-0.192000
0.000856	-14.000000	-0.184000
0.000858	-14.000000	-0.184000
0.000860	-13.600000	-0.184000
0.000862	-13.600000	-0.176000
0.000864	-13.200000	-0.176000
0.000866	-13.200000	-0.168000
0.000868	-12.800000	-0.168000
0.000870	-12.400000	-0.168000
0.000872	-12.400000	-0.160000
0.000874	-12.000000	-0.160000
0.000876	-12.000000	-0.152000
0.000878	-11.600000	-0.152000
0.000880	-11.200000	-0.152000
0.000882	-11.200000	-0.144000
0.000884	-10.800000	-0.144000
0.000886	-10.800000	-0.144000
0.000888	-10.400000	-0.136000
0.000890	-10.400000	-0.136000
0.000892	-10.000000	-0.128000
0.000894	-9.600000	-0.128000
0.000896	-9.600000	-0.128000
0.000898	-9.200000	-0.120000
0.000900	-8.800000	-0.120000
0.000902	-8.800000	-0.120000
0.000904	-8.400000	-0.112000
0.000906	-8.400000	-0.112000
0.000908	-8.000000	-0.112000
0.000910	-8.000000	-0.104000
0.000912	-7.600000	-0.104000
0.000914	-7.200000	-0.096000
0.000916	-7.200000	-0.096000
0.000918	-6.800000	-0.088000
0.000920	-6.400000	-0.088000
0.000922	-6.400000	-0.088000
0.000924	-6.400000	-0.080000
0.000926	-6.000000	-0.080000
0.000928	-5.600000	-0.072000
0.000930	-5.600000	-0.072000
0.000932	-5.200000	-0.072000
0.000934	-5.200000	-0.064000
0.000936	-4.800000	-0.064000
0.000938	-4.800000	-0.064000
0.000940	-4.400000	-0.056000
0.000942	-4.000000	-0.056000
0.000944	-4.000000	-0.048000
0.000946	-3.600000	-0.048000
0.000948	-3.600000	-0.040000
0.000950	-3.200000	-0.040000
0.000952	-2.800000	-0.040000
0.000954	-2.400000	-0.032000
0.000956	-2.400000	-0.032000
0.000958	-2.000000	-0.032000
0.000960	-2.000000	-0.024000
0.000962	-1.600000	-0.024000
0.000964	-1.200000	-0.016000
0.000966	-1.200000	-0.016000
0.000968	-0.800000	-0.008000
0.000970	-0.800000	-0.008000
0.000972	-0.400000	-0.008000
0.000974	-0.400000	0.000000
0.000976	0.000000	0.000000
0.000978	0.400000	0.000000
0.000980	0.400000	0.008000
0.000982	0.800000	0.008000
0.000984	0.800000	0.016000
0.000986	1.200000	0.016000
0.000988	1.200000	0.016000
0.000990	1.600000	0.024000
0.000992	1.600000	0.024000
0.000994	2.000000	0.032000
0.000996	2.000000	0.032000
0.000998	2.400000	0.032000
0.001000	2.800000	0.040000
0.001002	3.200000	0.040000
0.001004	3.200000	0.040000
0.001006	3.600000	0.048000
0.001008	3.600000	0.048000
0.001010	4.000000	0.048000
0.001012	4.000000	0.056000
0.001014	4.400000	0.056000
0.001016	4.800000	0.064000
0.001018	4.800000	0.064000
0.001020	5.200000	0.072000
0.001022	5.200000	0.072000
0.001024	5.600000	0.072000
0.001026	5.600000	0.080000
0.001028	6.000000	0.080000
0.001030	6.400000	0.080000
0.001032	6.400000	0.088000
0.001034	6.800000	0.088000
0.001036	6.800000	0.088000
0.001038	7.200000	0.096000
0.001040	7.200000	0.096000
0.001042	7.600000	0.104000
0.001044	8.000000	0.104000
0.001046	8.000000	0.112000
0.001048	8.400000	0.112000
0.001050	8.800000	0.112000
0.001052	8.800000	0.120000
0.001054	9.200000	0.120000
0.001056	9.200000	0.120000
0.001058	9.600000	0.128000
0.001060	9.600000	0.128000
0.001062	10.000000	0.128000
0.001064	10.000000	0.136000
0.001066	10.400000	0.136000
0.001068	10.800000	0.144000
0.001070	10.800000	0.144000
0.001072	11.200000	0.152000
0.001074	11.600000	0.152000
0.001076	11.600000	0.152000
0.001078	12.000000	0.160000
0.001080	12.000000	0.160000
0.001082	12.400000	0.160000
0.001084	12.400000	0.168000
0.001086	12.800000	0.168000
0.001088	13.200000	0.176000
0.001090	13.200000	0.176000
0.001092	13.600000	0.176000
0.001094	13.600000	0.184000
0.001096	14.000000	0.184000
0.001098	14.000000	0.192000
0.001100	14.400000	0.192000
0.001102	14.400000	0.192000
0.001104	14.800000	0.200000
0.001106	15.200000	0.200000
0.001108	15.200000	0.200000
0.001110	15.600000	0.200000
0.001112	16.000000	0.208000
0.001114	16.000000	0.208000
0.001116	16.400000	0.216000
0.001118	16.400000	0.216000
0.001120	16.800000	0.216000
0.001122	17.200000	0.224000
0.001124	17.200000	0.232000
0.001126	17.600000	0.232000
0.001128	17.600000	0.232000
0.001130	18.000000	0.240000
0.001132	18.000000	0.240000
0.001134	18.400000	0.240000
0.001136	18.400000	0.248000
0.001138	18.800000	0.248000
0.001140	19.200000	0.256000
0.001142	19.200000	0.256000
0.001144	19.600000	0.256000
0.001146	19.600000	0.264000
0.001148	20.000000	0.264000
0.001150	20.000000	0.272000
0.001152	20.400000	0.272000
0.001154	20.800000	0.272000
0.001156	20.800000	0.280000
0.001158	21.200000	0.280000
0.001160	21.600000	0.280000
0.001162	21.600000	0.288000
0.001164	22.000000	0.288000
0.001166	22.000000	0.288000
0.001168	22.400000	0.296000
0.001170	22.400000	0.296000
0.001172	22.800000	0.296000
0.001174	22.800000	0.304000
0.001176	23.200000	0.312000
0.001178	23.600000	0.312000
0.001180	23.600000	0.312000
0.001182	24.000000	0.320000
0.001184	24.000000	0.320000
0.001186	24.400000	0.320000
0.001188	24.400000	0.328000
0.001190	24.800000	0.328000
0.001192	25.200000	0.336000
0.001194	25.200000	0.336000
0.001196	25.600000	0.336000
0.001198	25.600000	0.344000
0.001200	26.000000	0.344000
0.001202	26.000000	0.352000
0.001204	26.400000	0.352000
0.001206	26.400000	0.352000
0.001208	26.800000	0.360000
0.001210	27.200000	0.360000
0.001212	27.200000	0.360000
0.001214	27.600000	0.368000
0.001216	28.000000	0.368000
0.001218	28.000000	0.368000
0.001220	28.400000	0.376000
0.001222	28.400000	0.376000
0.001224	28.800000	0.376000
0.001226	28.800000	0.384000
0.001228	28.800000	0.384000
0.001230	28.800000	0.376000
0.001232	28.800000	0.376000
0.001234	28.400000	0.376000
0.001236	28.000000	0.368000
0.001238	28.000000	0.368000
0.001240	27.600000	0.368000
0.001242	27.600000	0.368000
0.001244	27.200000	0.360000
0.001246	26.800000	0.360000
0.001248	26.800000	0.352000
0.001250	26.400000	0.352000
0.001252	26.000000	0.344000
0.001254	26.000000	0.344000
0.001256	25.600000	0.344000
0.001258	25.600000	0.336000
0.001260	25.200000	0.336000
0.001262	25.200000	0.336000
0.001264	24.800000	0.328000
0.001266	24.400000	0.328000
0.001268	24.400000	0.320000
0.001270	24.000000	0.320000
0.001272	24.000000	0.320000
0.001274	23.600000	0.312000
0.001276	23.600000	0.312000
0.001278	23.200000	0.304000
0.001280	22.800000	0.304000
0.001282	22.800000	0.296000
0.001284	22.400000	0.296000
0.001286	22.400000	0.296000
0.001288	22.000000	0.288000
0.001290	22.000000	0.288000
0.001292	21.600000	0.288000
0.001294	21.600000	0.280000
0.001296	21.200000	0.280000
0.001298	20.800000	0.280000
0.001300	20.400000	0.272000
0.001302	20.400000	0.272000
0.001304	20.000000	0.264000
0.001306	20.000000	0.264000
0.001308	19.600000	0.264000
0.001310	19.200000	0.256000
0.001312	19.200000	0.256000
0.001314	18.800000	0.256000
0.001316	18.800000	0.248000
0.001318	18.400000	0.248000
0.001320	18.400000	0.240000
0.001322	18.000000	0.240000
0.001324	17.600000	0.240000
0.001326	17.600000	0.232000
0.001328	17.600000	0.232000
0.001330	17.200000	0.232000
0.001332	16.800000	0.224000
0.001334	16.800000	0.216000
0.001336	16.400000	0.216000
0.001338	16.400000	0.216000
0.001340	16.000000	0.208000
0.001342	15.600000	0.208000
0.001344	15.600000	0.200000
0.001346	15.200000	0.200000
0.001348	15.200000	0.200000
0.001350	14.800000	0.200000
0.001352	14.400000	0.192000
0.001354	14.400000	0.192000
0.001356	14.000000	0.184000
0.001358	13.600000	0.184000
0.001360	13.600000	0.184000
0.001362	13.200000	0.176000
0.001364	13.200000	0.176000
0.001366	12.800000	0.176000
0.001368	12.800000	0.168000
0.001370	12.400000	0.168000
0.001372	12.400000	0.160000
0.001374	12.000000	0.160000
0.001376	11.600000	0.160000
0.001378	11.600000	0.152000
0.001380	11.200000	0.152000
0.001382	11.200000	0.152000
0.001384	10.800000	0.144000
0.001386	10.400000	0.144000
0.001388	10.400000	0.136000
0.001390	10.000000	0.136000
0.001392	10.000000	0.128000
0.001394	9.600000	0.128000
0.001396	9.600000	0.120000
0.001398	9.200000	0.120000
0.001400	8.800000	0.120000
0.001402	8.800000	0.120000
0.001404	8.400000	0.112000
0.001406	8.000000	0.112000
0.001408	8.000000	0.104000
0.001410	7.600000	0.104000
0.001412	7.600000	0.104000
0.001414	7.200000	0.096000
0.001416	7.200000	0.096000
0.001418	6.800000	0.088000
0.001420	6.400000	0.088000
0.001422	6.400000	0.088000
0.001424	6.000000	0.080000
0.001426	6.000000	0.080000
0.001428	5.600000	0.080000
0.001430	5.600000	0.072000
0.001432	5.200000	0.072000
0.001434	5.200000	0.072000
0.001436	4.800000	0.064000
0.001438	4.400000	0.064000
0.001440	4.400000	0.056000
0.001442	4.000000	0.056000
0.001444	4.000000	0.048000
0.001446	3.600000	0.048000
0.001448	3.200000	0.040000
0.001450	3.200000	0.040000
0.001452	2.800000	0.040000
0.001454	2.400000	0.040000
0.001456	2.400000	0.032000
0.001458	2.000000	0.032000
0.001460	2.000000	0.024000
0.001462	1.600000	0.024000
0.001464	1.200000	0.024000
0.001466	1.200000	0.016000
0.001468	0.800000	0.016000
0.001470	0.800000	0.008000
0.001472	0.400000	0.008000
0.001474	0.400000	0.008000
0.001476	0.000000	0.000000
0.001478	0.000000	0.000000
0.001480	-0.400000	0.000000
0.001482	-0.800000	-0.008000
0.001484	-0.800000	-0.008000
0.001486	-1.200000	-0.016000
0.001488	-1.200000	-0.016000
0.001490	-1.600000	-0.016000
0.001492	-1.600000	-0.024000
0.001494	-2.000000	-0.024000
0.001496	-2.400000	-0.032000
0.001498	-2.400000	-0.032000
0.001500	-2.800000	-0.032000
0.001502	-2.800000	-0.040000
0.001504	-3.200000	-0.040000
0.001506	-3.600000	-0.048000
0.001508	-4.000000	-0.048000
0.001510	-4.000000	-0.056000
0.001512	-4.400000	-0.056000
0.001514	-4.400000	-0.056000
0.001516	-4.800000	-0.064000
0.001518	-4.800000	-0.064000
0.001520	-5.200000	-0.064000
0.001522	-5.600000	-0.072000
0.001524	-5.600000	-0.072000
0.001526	-6.000000	-0.080000
0.001528	-6.000000	-0.080000
0.001530	-6.400000	-0.080000
0.001532	-6.400000	-0.088000
0.001534	-6.800000	-0.088000
0.001536	-6.800000	-0.096000
0.001538	-7.200000	-0.096000
0.001540	-7.600000	-0.096000
0.001542	-7.600000	-0.104000
0.001544	-8.000000	-0.104000
0.001546	-8.000000	-0.112000
0.001548	-8.400000	-0.112000
0.001550	-8.800000	-0.120000
0.001552	-8.800000	-0.120000
0.001554	-9.200000	-0.120000
0.001556	-9.600000	-0.120000
0.001558	-9.600000	-0.128000
0.001560	-10.000000	-0.128000
0.001562	-10.000000	-0.136000
0.001564	-10.400000	-0.136000
0.001566	-10.400000	-0.136000
0.001568	-10.800000	-0.144000
0.001570	-11.200000	-0.144000
0.001572	-11.200000	-0.144000
0.001574	-11.600000	-0.152000
0.001576	-11.600000	-0.152000
0.001578	-12.000000	-0.160000
0.001580	-12.000000	-0.160000
0.001582	-12.400000	-0.160000
0.001584	-12.800000	-0.168000
0.001586	-12.800000	-0.168000
0.001588	-13.200000	-0.168000
0.001590	-13.200000	-0.176000
0.001592	-13.600000	-0.176000
0.001594	-14.000000	-0.184000
0.001596	-14.000000	-0.184000
0.001598	-14.400000	-0.184000
0.001600	-14.400000	-0.192000
0.001602	-14.800000	-0.192000
0.001604	-14.800000	-0.200000
0.001606	-15.200000	-0.200000
0.001608	-15.200000	-0.200000
0.001610	-15.600000	-0.208000
0.001612	-16.000000	-0.208000
0.001614	-16.000000	-0.216000
0.001616	-16.400000	-0.216000
0.001618	-16.800000	-0.216000
0.001620	-16.800000	-0.224000
0.001622	-17.200000	-0.224000
0.001624	-17.200000	-0.224000
0.001626	-17.600000	-0.232000
0.001628	-18.000000	-0.232000
0.001630	-18.000000	-0.240000
0.001632	-18.400000	-0.240000
0.001634	-18.400000	-0.240000
0.001636	-18.800000	-0.248000
0.001638	-18.800000	-0.248000
0.001640	-19.200000	-0.256000
0.001642	-19.200000	-0.256000
0.001644	-19.600000	-0.256000
0.001646	-19.600000	-0.264000
0.001648	-20.000000	-0.264000
0.001650	-20.400000	-0.264000
0.001652	-20.400000	-0.272000
0.001654	-20.800000	-0.280000
0.001656	-20.800000	-0.280000
0.001658	-21.200000	-0.280000
0.001660	-21.200000	-0.280000
0.001662	-21.600000	-0.288000
0.001664	-22.000000	-0.288000
0.001666	-22.400000	-0.288000
0.001668	-22.400000	-0.296000
0.001670	-22.800000	-0.296000
0.001672	-22.800000	-0.304000
0.001674	-23.200000	-0.304000
0.001676	-23.200000	-0.304000
0.001678	-23.600000	-0.312000
0.001680	-24.000000	-0.312000
0.001682	-24.000000	-0.320000
0.001684	-24.400000	-0.320000
0.001686	-24.400000	-0.320000
0.001688	-24.800000	-0.328000
0.001690	-24.800000	-0.328000
0.001692	-25.200000	-0.328000
0.001694	-25.600000	-0.336000
0.001696	-25.600000	-0.336000
0.001698	-26.000000	-0.344000
0.001700	-26.000000	-0.344000
0.001702	-26.400000	-0.344000
0.001704	-26.400000	-0.352000
0.001706	-26.800000	-0.352000
0.001708	-26.800000	-0.360000
0.001710	-27.200000	-0.360000
0.001712	-27.600000	-0.360000
0.001714	-28.000000	-0.368000
0.001716	-28.000000	-0.368000
0.001718	-28.400000	-0.376000
0.001720	-28.400000	-0.376000
0.001722	-28.800000	-0.376000
0.001724	-28.800000	-0.384000
0.001726	-29.200000	-0.384000
0.001728	-29.200000	-0.384000
0.001730	-28.800000	-0.384000
0.001732	-28.800000	-0.376000
0.001734	-28.400000	-0.376000
0.001736	-28.400000	-0.376000
0.001738	-28.000000	-0.368000
0.001740	-28.000000	-0.368000
0.001742	-27.600000	-0.368000
0.001744	-27.200000	-0.360000
0.001746	-27.200000	-0.360000
0.001748	-26.800000	-0.360000
0.001750	-26.800000	-0.352000
0.001752	-26.400000	-0.344000
0.001754	-26.000000	-0.344000
0.001756	-26.000000	-0.344000
0.001758	-25.600000	-0.336000
0.001760	-25.600000	-0.336000
0.001762	-25.200000	-0.336000
0.001764	-24.800000	-0.328000
0.001766	-24.800000	-0.328000
0.001768	-24.400000	-0.320000
0.001770	-24.000000	-0.320000
0.001772	-24.000000	-0.320000
0.001774	-23.600000	-0.312000
0.001776	-23.600000	-0.312000
0.001778	-23.200000	-0.312000
0.001780	-23.200000	-0.304000
0.001782	-22.800000	-0.304000
0.001784	-22.800000	-0.296000
0.001786	-22.400000	-0.296000
0.001788	-22.400000	-0.288000
0.001790	-22.000000	-0.288000
0.001792	-21.600000	-0.288000
0.001794	-21.200000	-0.280000
0.001796	-21.200000	-0.280000
0.001798	-20.800000	-0.280000
0.001800	-20.800000	-0.272000
0.001802	-20.400000	-0.272000
0.001804	-20.400000	-0.264000
0.001806	-20.000000	-0.264000
0.001808	-19.600000	-0.264000
0.001810	-19.600000	-0.256000
0.001812	-19.200000	-0.256000
0.001814	-19.200000	-0.248000
0.001816	-18.800000	-0.248000
0.001818	-18.400000	-0.248000
0.001820	-18.400000	-0.240000
0.001822	-18.000000	-0.240000
0.001824	-18.000000	-0.240000
0.001826	-17.600000	-0.232000
0.001828	-17.600000	-0.232000
0.001830	-17.200000	-0.224000
0.001832	-17.200000	-0.224000
0.001834	-16.800000	-0.224000
0.001836	-16.400000	-0.216000
0.001838	-16.400000	-0.216000
0.001840	-16.000000	-0.216000
0.001842	-16.000000	-0.208000
0.001844	-15.600000	-0.208000
0.001846	-15.200000	-0.200000
0.001848	-14.800000	-0.200000
0.001850	-14.800000	-0.200000
0.001852	-14.400000	-0.192000
0.001854	-14.400000	-0.192000
0.001856	-14.000000	-0.184000
0.001858	-14.000000	-0.184000
0.001860	-13.600000	-0.184000
0.001862	-13.600000	-0.176000
0.001864	-13.200000	-0.176000
0.001866	-13.200000	-0.168000
0.001868	-12.800000	-0.168000
0.001870	-12.400000	-0.168000
0.001872	-12.400000	-0.160000
0.001874	-12.000000	-0.160000
0.001876	-12.000000	-0.152000
0.001878	-11.600000	-0.152000
0.001880	-11.200000	-0.152000
0.001882	-11.200000	-0.144000
0.001884	-10.800000	-0.144000
0.001886	-10.800000	-0.144000
0.001888	-10.400000	-0.136000
0.001890	-10.400000	-0.136000
0.001892	-10.000000	-0.128000
0.001894	-10.000000	-0.128000
0.001896	-9.600000	-0.128000
0.001898	-9.200000	-0.120000
0.001900	-8.800000	-0.120000
0.001902	-8.800000	-0.120000
0.001904	-8.400000	-0.112000
0.001906	-8.400000	-0.112000
0.001908	-8.000000	-0.112000
0.001910	-7.600000	-0.104000
0.001912	-7.600000	-0.104000
0.001914	-7.200000	-0.096000
0.001916	-7.200000	-0.096000
0.001918	-6.800000	-0.088000
0.001920	-6.400000	-0.088000
0.001922	-6.400000	-0.088000
0.001924	-6.400000	-0.080000
0.001926	-6.000000	-0.080000
0.001928	-5.600000	-0.072000
0.001930	-5.600000	-0.072000
0.001932	-5.200000	-0.072000
0.001934	-5.200000	-0.064000
0.001936	-4.800000	-0.064000
0.001938	-4.800000	-0.064000
0.001940	-4.400000	-0.056000
0.001942	-4.000000	-0.056000
0.001944	-4.000000	-0.048000
0.001946	-3.600000	-0.048000
0.001948	-3.200000	-0.048000
0.001950	-3.200000	-0.040000
0.001952	-2.800000	-0.040000
0.001954	-2.400000	-0.032000
0.001956	-2.400000	-0.032000
0.001958	-2.000000	-0.032000
0.001960	-2.000000	-0.024000
0.001962	-1.600000	-0.024000
0.001964	-1.200000	-0.016000
0.001966	-1.200000	-0.016000
0.001968	-0.800000	-0.008000
0.001970	-0.800000	-0.008000
0.001972	-0.400000	-0.008000
0.001974	-0.400000	0.000000
0.001976	0.000000	0.000000
0.001978	0.400000	0.000000
0.001980	0.400000	0.008000
0.001982	0.800000	0.008000
0.001984	0.800000	0.016000
0.001986	1.200000	0.016000
0.001988	1.200000	0.016000
0.001990	1.600000	0.024000
0.001992	1.600000	0.024000
0.001994	2.000000	0.024000
0.001996	2.400000	0.032000
0.001998	2.400000	0.032000
0.002000	2.800000	0.040000
0.002002	3.200000	0.040000
0.002004	3.200000	0.040000
0.002006	3.600000	0.040000
0.002008	4.000000	0.048000
0.002010	4.000000	0.048000
0.002012	4.400000	0.056000
0.002014	4.400000	0.056000
0.002016	4.800000	0.064000
0.002018	4.800000	0.064000
0.002020	5.200000	0.072000
0.002022	5.200000	0.072000
0.002024	5.600000	0.072000
0.002026	5.600000	0.080000
0.002028	6.000000	0.080000
0.002030	6.400000	0.080000
0.002032	6.400000	0.088000
0.002034	6.800000	0.088000
0.002036	6.800000	0.088000
0.002038	7.200000	0.096000
0.002040	7.200000	0.096000
0.002042	7.600000	0.104000
0.002044	8.000000	0.104000
0.002046	8.000000	0.112000
0.002048	8.400000	0.112000
0.002050	8.800000	0.112000
0.002052	8.800000	0.120000
0.002054	9.200000	0.120000
0.002056	9.200000	0.120000
0.002058	9.600000	0.128000
0.002060	9.600000	0.128000
0.002062	10.000000	0.128000
0.002064	10.400000	0.136000
0.002066	10.400000	0.136000
0.002068	10.800000	0.144000
0.002070	10.800000	0.144000
0.002072	11.200000	0.152000
0.002074	11.600000	0.152000
0.002076	11.600000	0.152000
0.002078	12.000000	0.160000
0.002080	12.000000	0.160000
0.002082	12.400000	0.168000
0.002084	12.400000	0.168000
0.002086	12.800000	0.168000
0.002088	13.200000	0.176000
0.002090	13.200000	0.176000
0.002092	13.600000	0.176000
0.002094	13.600000	0.184000
0.002096	14.000000	0.184000
0.002098	14.000000	0.192000
0.002100	14.400000	0.192000
0.002102	14.400000	0.192000
0.002104	14.800000	0.200000
0.002106	15.200000	0.200000
0.002108	15.200000	0.200000
0.002110	15.600000	0.208000
0.002112	16.000000	0.208000
0.002114	16.000000	0.208000
0.002116	16.400000	0.216000
0.002118	16.400000	0.216000
0.002120	16.800000	0.216000
0.002122	17.200000	0.224000
0.002124	17.200000	0.224000
0.002126	17.600000	0.232000
0.002128	17.600000	0.232000
0.002130	18.000000	0.240000
0.002132	18.000000	0.240000
0.002134	18.400000	0.240000
0.002136	18.400000	0.248000
0.002138	18.800000	0.248000
0.002140	19.200000	0.256000
0.002142	19.200000	0.256000
0.002144	19.600000	0.256000
0.002146	19.600000	0.264000
0.002148	20.000000	0.264000
0.002150	20.400000	0.272000
0.002152	20.400000	0.272000
0.002154	20.800000	0.272000
0.002156	20.800000	0.280000
0.002158	21.200000	0.280000
0.002160	21.600000	0.280000
0.002162	21.600000	0.288000
0.002164	22.000000	0.288000
0.002166	22.000000	0.288000
0.002168	22.400000	0.296000
0.002170	22.400000	0.296000
0.002172	22.800000	0.296000
0.002174	22.800000	0.304000
0.002176	23.200000	0.312000
0.002178	23.600000	0.312000
0.002180	23.600000	0.312000
0.002182	24.000000	0.320000
0.002184	24.000000	0.320000
0.002186	24.400000	0.320000
0.002188	24.400000	0.328000
0.002190	24.800000	0.328000
0.002192	25.200000	0.336000
0.002194	25.200000	0.336000
0.002196	25.600000	0.336000
0.002198	25.600000	0.344000
0.002200	26.000000	0.344000
0.002202	26.000000	0.344000
0.002204	26.400000	0.352000
0.002206	26.400000	0.352000
0.002208	26.800000	0.360000
0.002210	27.200000	0.360000
0.002212	27.200000	0.360000
0.002214	27.600000	0.368000
0.002216	28.000000	0.368000
0.002218	28.000000	0.368000
0.002220	28.400000	0.376000
0.002222	28.400000	0.376000
0.002224	28.800000	0.376000
0.002226	28.800000	0.384000
0.002228	28.800000	0.384000
0.002230	28.800000	0.376000
0.002232	28.800000	0.376000
0.002234	28.400000	0.376000
0.002236	28.000000	0.368000
0.002238	28.000000	0.368000
0.002240	27.600000	0.368000
0.002242	27.600000	0.360000
0.002244	27.200000	0.360000
0.002246	26.800000	0.360000
0.002248	26.400000	0.352000
0.002250	26.400000	0.352000
0.002252	26.000000	0.352000
0.002254	26.000000	0.344000
0.002256	25.600000	0.344000
0.002258	25.600000	0.336000
0.002260	25.200000	0.336000
0.002262	25.200000	0.336000
0.002264	24.800000	0.328000
0.002266	24.400000	0.328000
0.002268	24.400000	0.320000
0.002270	24.000000	0.320000
0.002272	24.000000	0.320000
0.002274	23.600000	0.312000
0.002276	23.600000	0.312000
0.002278	23.200000	0.312000
0.002280	22.800000	0.304000
0.002282	22.800000	0.296000
0.002284	22.400000	0.296000
0.002286	22.400000	0.296000
0.002288	22.000000	0.288000
0.002290	22.000000	0.288000
0.002292	21.600000	0.288000
0.002294	21.600000	0.280000
0.002296	21.200000	0.280000
0.002298	20.800000	0.280000
0.002300	20.800000	0.272000
0.002302	20.400000	0.272000
0.002304	20.000000	0.264000
0.002306	20.000000	0.264000
0.002308	19.600000	0.264000
0.002310	19.200000	0.256000
0.002312	19.200000	0.256000
0.002314	18.800000	0.256000
0.002316	18.800000	0.248000
0.002318	18.400000	0.248000
0.002320	18.400000	0.240000
0.002322	18.000000	0.240000
0.002324	17.600000	0.240000
0.002326	17.600000	0.232000
0.002328	17.600000	0.232000
0.002330	17.200000	0.224000
0.002332	16.800000	0.224000
0.002334	16.800000	0.216000
0.002336	16.400000	0.216000
0.002338	16.400000	0.216000
0.002340	16.000000	0.208000
0.002342	15.600000	0.208000
0.002344	15.600000	0.200000
0.002346	15.200000	0.200000
0.002348	15.200000	0.200000
0.002350	14.800000	0.200000
0.002352	14.400000	0.192000
0.002354	14.000000	0.192000
0.002356	14.000000	0.184000
0.002358	13.600000	0.184000
0.002360	13.600000	0.184000
0.002362	13.200000	0.176000
0.002364	13.200000	0.176000
0.002366	12.800000	0.176000
0.002368	12.800000	0.168000
0.002370	12.400000	0.168000
0.002372	12.000000	0.160000
0.002374	12.000000	0.160000
0.002376	11.600000	0.160000
0.002378	11.600000	0.152000
0.002380	11.200000	0.152000
0.002382	11.200000	0.152000
0.002384	10.800000	0.144000
0.002386	10.400000	0.144000
0.002388	10.400000	0.136000
0.002390	10.000000	0.136000
0.002392	10.000000	0.128000
0.002394	9.600000	0.128000
0.002396	9.200000	0.128000
0.002398	9.200000	0.120000
0.002400	9.200000	0.120000
0.002402	8.800000	0.112000
0.002404	8.400000	0.112000
0.002406	8.000000	0.112000
0.002408	8.000000	0.104000
0.002410	7.600000	0.104000
0.002412	7.600000	0.104000
0.002414	7.200000	0.096000
0.002416	7.200000	0.096000
0.002418	6.800000	0.088000
0.002420	6.400000	0.088000
0.002422	6.400000	0.088000
0.002424	6.000000	0.080000
0.002426	6.000000	0.080000
0.002428	5.600000	0.080000
0.002430	5.200000	0.072000
0.002432	5.200000	0.072000
0.002434	5.200000	0.064000
0.002436	4.800000	0.064000
0.002438	4.400000	0.064000
0.002440	4.400000	0.056000
0.002442	4.000000	0.056000
0.002444	4.000000	0.048000
0.002446	3.600000	0.048000
0.002448	3.200000	0.040000
0.002450	3.200000	0.040000
0.002452	2.800000	0.040000
0.002454	2.400000	0.040000
0.002456	2.400000	0.032000
0.002458	2.000000	0.032000
0.002460	1.600000	0.024000
0.002462	1.600000	0.024000
0.002464	1.200000	0.024000
0.002466	1.200000	0.016000
0.002468	0.800000	0.016000
0.002470	0.800000	0.008000
0.002472	0.400000	0.008000
0.002474	0.400000	0.008000
0.002476	0.000000	0.000000
0.002478	0.000000	0.000000
0.002480	-0.400000	0.000000
0.002482	-0.400000	-0.008000
0.002484	-0.800000	-0.008000
0.002486	-1.200000	-0.016000
0.002488	-1.200000	-0.016000
0.002490	-1.600000	-0.016000
0.002492	-2.000000	-0.024000
0.002494	-2.000000	-0.024000
0.002496	-2.400000	-0.032000
0.002498	-2.400000	-0.032000

